TimeStamp,unix_ms,lsl_unix_ts,TP9,AF7,AF8,TP10
2025-10-15 12:46:03.594,1760546763594,1760546763.594,823.992673992674,808.6813186813187,845.7509157509157,810.2930402930403
2025-10-15 12:46:03.594,1760546763594,1760546763.594,804.6520146520147,804.6520146520147,821.5750915750916,801.4285714285714
2025-10-15 12:46:03.595,1760546763595,1760546763.595,827.2161172161173,795.7875457875458,811.0989010989011,812.7106227106227
2025-10-15 12:46:03.595,1760546763595,1760546763.595,835.6776556776557,798.6080586080586,823.5897435897436,822.3809523809524
2025-10-15 12:46:03.595,1760546763595,1760546763.595,811.5018315018315,798.2051282051282,822.3809523809524,813.1135531135532
2025-10-15 12:46:03.595,1760546763595,1760546763.595,809.4871794871796,801.4285714285714,811.0989010989011,799.4139194139194
2025-10-15 12:46:03.595,1760546763595,1760546763.595,800.2197802197802,796.996336996337,782.4908424908425,806.6666666666667
2025-10-15 12:46:03.596,1760546763596,1760546763.596,823.992673992674,805.4578754578755,834.8717948717949,823.5897435897436
2025-10-15 12:46:03.596,1760546763596,1760546763.596,805.054945054945,799.4139194139194,809.8901098901099,806.6666666666667
2025-10-15 12:46:03.596,1760546763596,1760546763.596,799.8168498168499,800.6227106227107,830.4395604395604,813.5164835164835
2025-10-15 12:46:03.596,1760546763596,1760546763.596,801.8315018315019,793.7728937728938,797.8021978021978,823.992673992674
2025-10-15 12:46:03.596,1760546763596,1760546763.596,791.7582417582418,797.3992673992674,805.054945054945,802.2344322344322
2025-10-15 12:46:03.597,1760546763597,1760546763.597,828.021978021978,801.025641025641,828.8278388278388,813.1135531135532
2025-10-15 12:46:03.597,1760546763597,1760546763.597,812.7106227106227,798.6080586080586,809.4871794871796,807.4725274725275
2025-10-15 12:46:03.597,1760546763597,1760546763.597,786.1172161172161,793.7728937728938,808.2783882783883,805.4578754578755
2025-10-15 12:46:03.597,1760546763597,1760546763.597,792.1611721611722,786.9230769230769,815.5311355311355,800.2197802197802
2025-10-15 12:46:03.597,1760546763597,1760546763.597,812.3076923076924,789.7435897435897,810.6959706959707,817.1428571428571
2025-10-15 12:46:03.598,1760546763598,1760546763.598,834.8717948717949,806.6666666666667,842.9304029304029,818.3516483516484
2025-10-15 12:46:03.598,1760546763598,1760546763.598,817.5457875457876,808.6813186813187,830.0366300366301,815.934065934066
2025-10-15 12:46:03.598,1760546763598,1760546763.598,805.4578754578755,797.8021978021978,815.5311355311355,824.3956043956044
2025-10-15 12:46:03.598,1760546763598,1760546763.598,814.3223443223443,792.5641025641025,787.3260073260074,836.0805860805862
2025-10-15 12:46:03.598,1760546763598,1760546763.598,801.8315018315019,799.0109890109891,777.6556776556777,819.5604395604396
2025-10-15 12:46:03.599,1760546763599,1760546763.599,791.3553113553114,791.7582417582418,820.3663003663004,812.3076923076924
2025-10-15 12:46:03.599,1760546763599,1760546763.599,818.7545787545788,798.2051282051282,829.6336996336996,806.6666666666667
2025-10-15 12:46:03.600,1760546763600,1760546763.6,821.978021978022,801.025641025641,825.2014652014652,817.1428571428571
2025-10-15 12:46:03.600,1760546763600,1760546763.6,816.7399267399268,800.6227106227107,817.1428571428571,810.2930402930403
2025-10-15 12:46:03.601,1760546763601,1760546763.601,812.3076923076924,804.6520146520147,823.5897435897436,808.2783882783883
2025-10-15 12:46:03.601,1760546763601,1760546763.601,799.0109890109891,802.2344322344322,833.6630036630037,797.8021978021978
2025-10-15 12:46:03.601,1760546763601,1760546763.601,799.8168498168499,804.6520146520147,832.8571428571429,804.2490842490843
2025-10-15 12:46:03.601,1760546763601,1760546763.601,810.6959706959707,804.2490842490843,790.952380952381,824.3956043956044
2025-10-15 12:46:03.601,1760546763601,1760546763.601,798.2051282051282,798.6080586080586,796.5934065934066,819.1575091575091
2025-10-15 12:46:03.602,1760546763602,1760546763.602,805.054945054945,796.996336996337,824.3956043956044,810.6959706959707
2025-10-15 12:46:03.602,1760546763602,1760546763.602,805.054945054945,799.4139194139194,820.7692307692308,819.5604395604396
2025-10-15 12:46:03.602,1760546763602,1760546763.602,796.1904761904763,800.2197802197802,840.5128205128206,791.7582417582418
2025-10-15 12:46:03.602,1760546763602,1760546763.602,802.2344322344322,795.7875457875458,821.1721611721612,793.3699633699634
2025-10-15 12:46:03.602,1760546763602,1760546763.602,799.8168498168499,796.996336996337,810.6959706959707,811.0989010989011
2025-10-15 12:46:03.603,1760546763603,1760546763.603,814.3223443223443,796.996336996337,809.8901098901099,806.6666666666667
2025-10-15 12:46:03.603,1760546763603,1760546763.603,804.6520146520147,791.3553113553114,793.3699633699634,822.3809523809524
2025-10-15 12:46:03.603,1760546763603,1760546763.603,805.4578754578755,788.9377289377289,810.6959706959707,816.7399267399268
2025-10-15 12:46:03.603,1760546763603,1760546763.603,796.996336996337,790.1465201465202,822.3809523809524,798.2051282051282
2025-10-15 12:46:03.603,1760546763603,1760546763.603,805.4578754578755,787.3260073260074,792.1611721611722,805.4578754578755
2025-10-15 12:46:03.603,1760546763603,1760546763.603,818.7545787545788,788.1318681318681,776.0439560439561,817.5457875457876
2025-10-15 12:46:03.604,1760546763604,1760546763.604,815.1282051282052,790.5494505494506,830.0366300366301,830.8424908424909
2025-10-15 12:46:03.604,1760546763604,1760546763.604,798.6080586080586,791.3553113553114,785.3113553113553,832.4542124542124
2025-10-15 12:46:03.604,1760546763604,1760546763.604,803.040293040293,790.952380952381,807.0695970695971,828.021978021978
2025-10-15 12:46:03.604,1760546763604,1760546763.604,808.6813186813187,791.3553113553114,816.7399267399268,817.5457875457876
2025-10-15 12:46:03.604,1760546763604,1760546763.604,805.054945054945,789.7435897435897,785.7142857142858,808.2783882783883
2025-10-15 12:46:03.605,1760546763605,1760546763.605,812.7106227106227,788.1318681318681,821.1721611721612,821.5750915750916
2025-10-15 12:46:03.606,1760546763606,1760546763.606,809.0842490842491,792.5641025641025,807.4725274725275,808.2783882783883
2025-10-15 12:46:03.606,1760546763606,1760546763.606,808.2783882783883,788.5347985347986,819.1575091575091,802.6373626373627
2025-10-15 12:46:03.607,1760546763607,1760546763.607,818.7545787545788,790.5494505494506,826.007326007326,807.4725274725275
2025-10-15 12:46:03.607,1760546763607,1760546763.607,832.0512820512821,795.7875457875458,807.4725274725275,799.4139194139194
2025-10-15 12:46:03.607,1760546763607,1760546763.607,805.8608058608058,792.967032967033,796.5934065934066,794.981684981685
2025-10-15 12:46:03.607,1760546763607,1760546763.607,824.7985347985348,804.6520146520147,807.0695970695971,801.8315018315019
2025-10-15 12:46:03.607,1760546763607,1760546763.607,847.3626373626374,803.4432234432235,812.3076923076924,813.1135531135532
2025-10-15 12:46:03.608,1760546763608,1760546763.608,828.021978021978,787.3260073260074,814.7252747252747,817.948717948718
2025-10-15 12:46:03.608,1760546763608,1760546763.608,819.96336996337,791.3553113553114,837.6923076923077,814.3223443223443
2025-10-15 12:46:03.608,1760546763608,1760546763.608,830.8424908424909,792.5641025641025,824.3956043956044,822.7838827838829
2025-10-15 12:46:03.608,1760546763608,1760546763.608,795.7875457875458,792.5641025641025,792.5641025641025,821.1721611721612
2025-10-15 12:46:03.608,1760546763608,1760546763.608,791.3553113553114,794.981684981685,796.1904761904763,810.2930402930403
2025-10-15 12:46:03.609,1760546763609,1760546763.609,809.0842490842491,795.3846153846154,817.1428571428571,804.6520146520147
2025-10-15 12:46:03.609,1760546763609,1760546763.609,786.5201465201466,799.4139194139194,832.4542124542124,799.8168498168499
2025-10-15 12:46:03.609,1760546763609,1760546763.609,807.0695970695971,794.1758241758242,825.6043956043957,808.2783882783883
2025-10-15 12:46:03.609,1760546763609,1760546763.609,826.4102564102565,795.3846153846154,809.0842490842491,824.7985347985348
2025-10-15 12:46:03.609,1760546763609,1760546763.609,806.6666666666667,793.7728937728938,799.8168498168499,833.2600732600733
2025-10-15 12:46:03.610,1760546763610,1760546763.61,813.5164835164835,795.7875457875458,827.6190476190476,810.2930402930403
2025-10-15 12:46:03.610,1760546763610,1760546763.61,819.96336996337,790.1465201465202,787.7289377289378,827.2161172161173
2025-10-15 12:46:03.610,1760546763610,1760546763.61,802.6373626373627,786.5201465201466,809.4871794871796,811.5018315018315
2025-10-15 12:46:03.610,1760546763610,1760546763.61,820.3663003663004,782.0879120879121,809.0842490842491,805.8608058608058
2025-10-15 12:46:03.610,1760546763610,1760546763.61,826.4102564102565,785.3113553113553,796.996336996337,820.7692307692308
2025-10-15 12:46:03.611,1760546763611,1760546763.611,809.0842490842491,798.6080586080586,841.3186813186813,796.996336996337
2025-10-15 12:46:03.611,1760546763611,1760546763.611,807.8754578754579,794.5787545787546,801.4285714285714,819.5604395604396
2025-10-15 12:46:03.612,1760546763612,1760546763.612,814.7252747252747,796.1904761904763,814.3223443223443,834.4688644688645
2025-10-15 12:46:03.612,1760546763612,1760546763.612,811.9047619047619,804.2490842490843,841.7216117216118,811.0989010989011
2025-10-15 12:46:03.613,1760546763613,1760546763.613,797.3992673992674,796.996336996337,813.1135531135532,809.4871794871796
2025-10-15 12:46:03.613,1760546763613,1760546763.613,817.1428571428571,788.1318681318681,822.3809523809524,821.1721611721612
2025-10-15 12:46:03.613,1760546763613,1760546763.613,807.4725274725275,798.6080586080586,817.948717948718,815.5311355311355
2025-10-15 12:46:03.613,1760546763613,1760546763.613,811.9047619047619,799.0109890109891,824.3956043956044,807.0695970695971
2025-10-15 12:46:03.613,1760546763613,1760546763.613,816.3369963369963,786.9230769230769,816.7399267399268,825.2014652014652
2025-10-15 12:46:03.614,1760546763614,1760546763.614,808.6813186813187,790.952380952381,793.3699633699634,825.2014652014652
2025-10-15 12:46:03.614,1760546763614,1760546763.614,825.6043956043957,798.2051282051282,803.4432234432235,821.978021978022
2025-10-15 12:46:03.614,1760546763614,1760546763.614,828.021978021978,796.996336996337,826.007326007326,808.2783882783883
2025-10-15 12:46:03.614,1760546763614,1760546763.614,808.2783882783883,790.952380952381,811.5018315018315,807.0695970695971
2025-10-15 12:46:03.614,1760546763614,1760546763.614,806.6666666666667,795.7875457875458,819.96336996337,812.7106227106227
2025-10-15 12:46:03.615,1760546763615,1760546763.615,835.6776556776557,800.2197802197802,817.5457875457876,816.7399267399268
2025-10-15 12:46:03.615,1760546763615,1760546763.615,828.8278388278388,794.981684981685,829.2307692307693,819.96336996337
2025-10-15 12:46:03.615,1760546763615,1760546763.615,818.3516483516484,802.2344322344322,813.919413919414,812.7106227106227
2025-10-15 12:46:03.615,1760546763615,1760546763.615,821.1721611721612,799.8168498168499,810.6959706959707,817.5457875457876
2025-10-15 12:46:03.615,1760546763615,1760546763.615,831.6483516483516,795.3846153846154,827.6190476190476,822.3809523809524
2025-10-15 12:46:03.615,1760546763615,1760546763.615,824.3956043956044,795.7875457875458,838.0952380952381,827.2161172161173
2025-10-15 12:46:03.616,1760546763616,1760546763.616,808.6813186813187,794.5787545787546,815.934065934066,810.6959706959707
2025-10-15 12:46:03.616,1760546763616,1760546763.616,807.4725274725275,799.0109890109891,775.2380952380953,805.054945054945
2025-10-15 12:46:03.616,1760546763616,1760546763.616,805.4578754578755,805.4578754578755,822.3809523809524,804.6520146520147
2025-10-15 12:46:03.616,1760546763616,1760546763.616,814.3223443223443,807.4725274725275,854.6153846153846,788.1318681318681
2025-10-15 12:46:03.616,1760546763616,1760546763.616,815.934065934066,805.054945054945,830.8424908424909,774.0293040293041
2025-10-15 12:46:03.616,1760546763616,1760546763.616,814.3223443223443,810.2930402930403,834.0659340659341,787.7289377289378
2025-10-15 12:46:03.617,1760546763617,1760546763.617,809.8901098901099,809.8901098901099,835.6776556776557,795.3846153846154
2025-10-15 12:46:03.618,1760546763618,1760546763.618,801.8315018315019,805.4578754578755,832.4542124542124,801.025641025641
2025-10-15 12:46:03.618,1760546763618,1760546763.618,813.919413919414,804.2490842490843,818.7545787545788,824.7985347985348
2025-10-15 12:46:03.618,1760546763618,1760546763.618,802.2344322344322,801.8315018315019,832.8571428571429,817.5457875457876
2025-10-15 12:46:03.619,1760546763619,1760546763.619,792.967032967033,801.025641025641,840.5128205128206,794.5787545787546
2025-10-15 12:46:03.619,1760546763619,1760546763.619,810.6959706959707,802.2344322344322,823.5897435897436,799.8168498168499
2025-10-15 12:46:03.619,1760546763619,1760546763.619,803.8461538461539,800.2197802197802,794.981684981685,814.7252747252747
2025-10-15 12:46:03.619,1760546763619,1760546763.619,794.5787545787546,801.025641025641,815.1282051282052,811.5018315018315
2025-10-15 12:46:03.620,1760546763620,1760546763.62,763.5531135531136,789.3406593406594,855.4212454212454,805.054945054945
2025-10-15 12:46:03.620,1760546763620,1760546763.62,788.9377289377289,792.967032967033,826.4102564102565,813.1135531135532
2025-10-15 12:46:03.620,1760546763620,1760546763.62,794.5787545787546,796.996336996337,853.4065934065934,801.8315018315019
2025-10-15 12:46:03.620,1760546763620,1760546763.62,820.3663003663004,805.054945054945,849.7802197802198,794.5787545787546
2025-10-15 12:46:03.620,1760546763620,1760546763.62,835.6776556776557,799.8168498168499,822.7838827838829,803.8461538461539
2025-10-15 12:46:03.621,1760546763621,1760546763.621,807.0695970695971,797.3992673992674,821.1721611721612,798.2051282051282
2025-10-15 12:46:03.621,1760546763621,1760546763.621,807.8754578754579,786.1172161172161,809.8901098901099,799.4139194139194
2025-10-15 12:46:03.621,1760546763621,1760546763.621,804.2490842490843,792.5641025641025,831.6483516483516,801.025641025641
2025-10-15 12:46:03.621,1760546763621,1760546763.621,808.6813186813187,801.025641025641,832.0512820512821,788.9377289377289
2025-10-15 12:46:03.621,1760546763621,1760546763.621,813.919413919414,804.2490842490843,809.4871794871796,798.6080586080586
2025-10-15 12:46:03.621,1760546763621,1760546763.621,803.4432234432235,808.6813186813187,779.6703296703297,835.2747252747253
2025-10-15 12:46:03.622,1760546763622,1760546763.622,778.8644688644689,790.952380952381,853.0036630036631,790.952380952381
2025-10-15 12:46:03.622,1760546763622,1760546763.622,755.4945054945055,809.8901098901099,838.901098901099,784.5054945054945
2025-10-15 12:46:03.622,1760546763622,1760546763.622,793.7728937728938,795.7875457875458,844.5421245421246,807.8754578754579
2025-10-15 12:46:03.622,1760546763622,1760546763.622,817.948717948718,800.2197802197802,819.96336996337,834.4688644688645
2025-10-15 12:46:03.622,1760546763622,1760546763.622,773.2234432234433,803.040293040293,863.8827838827839,787.3260073260074
2025-10-15 12:46:03.623,1760546763623,1760546763.623,784.9084249084249,796.1904761904763,835.6776556776557,772.8205128205128
2025-10-15 12:46:03.624,1760546763624,1760546763.624,778.8644688644689,794.5787545787546,834.0659340659341,788.5347985347986
2025-10-15 12:46:03.624,1760546763624,1760546763.624,771.2087912087912,795.3846153846154,845.7509157509157,796.996336996337
2025-10-15 12:46:03.624,1760546763624,1760546763.624,801.8315018315019,800.6227106227107,840.9157509157509,788.1318681318681
2025-10-15 12:46:03.624,1760546763624,1760546763.624,790.1465201465202,802.6373626373627,825.6043956043957,792.1611721611722
2025-10-15 12:46:03.624,1760546763624,1760546763.624,765.9706959706959,800.2197802197802,818.3516483516484,793.7728937728938
2025-10-15 12:46:03.625,1760546763625,1760546763.625,788.5347985347986,799.0109890109891,826.007326007326,784.9084249084249
2025-10-15 12:46:03.625,1760546763625,1760546763.625,822.7838827838829,802.6373626373627,828.8278388278388,790.1465201465202
2025-10-15 12:46:03.626,1760546763626,1760546763.626,799.4139194139194,798.2051282051282,828.021978021978,801.025641025641
2025-10-15 12:46:03.626,1760546763626,1760546763.626,818.7545787545788,803.4432234432235,860.2564102564103,805.054945054945
2025-10-15 12:46:03.626,1760546763626,1760546763.626,788.5347985347986,799.4139194139194,807.8754578754579,797.3992673992674
2025-10-15 12:46:03.626,1760546763626,1760546763.626,765.9706959706959,794.5787545787546,795.3846153846154,806.2637362637363
2025-10-15 12:46:03.626,1760546763626,1760546763.626,805.4578754578755,800.6227106227107,834.4688644688645,809.8901098901099
2025-10-15 12:46:03.627,1760546763627,1760546763.627,796.1904761904763,799.4139194139194,816.7399267399268,785.3113553113553
2025-10-15 12:46:03.627,1760546763627,1760546763.627,828.021978021978,799.4139194139194,830.4395604395604,786.9230769230769
2025-10-15 12:46:03.627,1760546763627,1760546763.627,820.3663003663004,798.6080586080586,832.0512820512821,797.3992673992674
2025-10-15 12:46:03.627,1760546763627,1760546763.627,795.7875457875458,795.3846153846154,803.8461538461539,812.7106227106227
2025-10-15 12:46:03.627,1760546763627,1760546763.627,782.4908424908425,791.7582417582418,796.5934065934066,808.2783882783883
2025-10-15 12:46:03.627,1760546763627,1760546763.627,793.3699633699634,796.996336996337,821.978021978022,788.1318681318681
2025-10-15 12:46:03.628,1760546763628,1760546763.628,770.8058608058608,792.1611721611722,832.4542124542124,785.3113553113553
2025-10-15 12:46:03.628,1760546763628,1760546763.628,808.6813186813187,792.1611721611722,774.4322344322345,822.3809523809524
2025-10-15 12:46:03.628,1760546763628,1760546763.628,788.5347985347986,796.1904761904763,823.5897435897436,790.952380952381
2025-10-15 12:46:03.628,1760546763628,1760546763.628,818.3516483516484,798.2051282051282,824.7985347985348,785.3113553113553
2025-10-15 12:46:03.628,1760546763628,1760546763.628,818.7545787545788,796.5934065934066,804.2490842490843,809.4871794871796
2025-10-15 12:46:03.651,1760546763651,1760546763.651,800.2197802197802,786.1172161172161,803.040293040293,796.996336996337
2025-10-15 12:46:03.651,1760546763651,1760546763.651,803.4432234432235,793.3699633699634,819.5604395604396,797.8021978021978
2025-10-15 12:46:03.651,1760546763651,1760546763.651,792.5641025641025,794.5787545787546,824.7985347985348,799.4139194139194
2025-10-15 12:46:03.651,1760546763651,1760546763.651,798.6080586080586,792.5641025641025,818.7545787545788,796.996336996337
2025-10-15 12:46:03.651,1760546763651,1760546763.651,809.0842490842491,795.7875457875458,805.8608058608058,812.7106227106227
2025-10-15 12:46:03.652,1760546763652,1760546763.652,819.96336996337,794.5787545787546,799.8168498168499,815.934065934066
2025-10-15 12:46:03.652,1760546763652,1760546763.652,807.8754578754579,792.1611721611722,804.6520146520147,796.996336996337
2025-10-15 12:46:03.652,1760546763652,1760546763.652,803.8461538461539,797.3992673992674,813.1135531135532,794.981684981685
2025-10-15 12:46:03.653,1760546763653,1760546763.653,802.2344322344322,794.981684981685,795.3846153846154,795.3846153846154
2025-10-15 12:46:03.653,1760546763653,1760546763.653,786.9230769230769,794.5787545787546,826.007326007326,799.0109890109891
2025-10-15 12:46:03.653,1760546763653,1760546763.653,809.4871794871796,796.996336996337,783.2967032967033,821.1721611721612
2025-10-15 12:46:03.653,1760546763653,1760546763.653,808.6813186813187,796.996336996337,795.3846153846154,823.992673992674
2025-10-15 12:46:03.654,1760546763654,1760546763.654,844.945054945055,801.8315018315019,799.0109890109891,813.1135531135532
2025-10-15 12:46:03.654,1760546763654,1760546763.654,837.6923076923077,802.6373626373627,831.2454212454213,832.4542124542124
2025-10-15 12:46:03.654,1760546763654,1760546763.654,806.2637362637363,795.7875457875458,823.5897435897436,822.7838827838829
2025-10-15 12:46:03.654,1760546763654,1760546763.654,785.3113553113553,792.1611721611722,797.3992673992674,803.8461538461539
2025-10-15 12:46:03.654,1760546763654,1760546763.654,798.2051282051282,790.1465201465202,792.967032967033,822.7838827838829
2025-10-15 12:46:03.655,1760546763655,1760546763.655,805.054945054945,788.1318681318681,768.7912087912088,838.0952380952381
2025-10-15 12:46:03.655,1760546763655,1760546763.655,819.96336996337,796.996336996337,811.9047619047619,844.5421245421246
2025-10-15 12:46:03.655,1760546763655,1760546763.655,787.3260073260074,792.1611721611722,789.3406593406594,806.6666666666667
2025-10-15 12:46:03.655,1760546763655,1760546763.655,810.6959706959707,798.6080586080586,807.8754578754579,809.4871794871796
2025-10-15 12:46:03.655,1760546763655,1760546763.655,825.6043956043957,792.1611721611722,807.4725274725275,831.2454212454213
2025-10-15 12:46:03.656,1760546763656,1760546763.656,801.8315018315019,794.5787545787546,837.6923076923077,828.4249084249085
2025-10-15 12:46:03.656,1760546763656,1760546763.656,808.2783882783883,791.7582417582418,819.1575091575091,812.3076923076924
2025-10-15 12:46:03.657,1760546763657,1760546763.657,842.5274725274726,798.6080586080586,822.7838827838829,808.6813186813187
2025-10-15 12:46:03.657,1760546763657,1760546763.657,857.032967032967,796.5934065934066,823.5897435897436,824.7985347985348
2025-10-15 12:46:03.657,1760546763657,1760546763.657,830.4395604395604,796.1904761904763,824.3956043956044,822.7838827838829
2025-10-15 12:46:03.657,1760546763657,1760546763.657,804.6520146520147,801.025641025641,809.4871794871796,823.1868131868132
2025-10-15 12:46:03.658,1760546763658,1760546763.658,815.5311355311355,800.2197802197802,837.6923076923077,807.0695970695971
2025-10-15 12:46:03.658,1760546763658,1760546763.658,815.5311355311355,796.996336996337,796.1904761904763,821.1721611721612
2025-10-15 12:46:03.658,1760546763658,1760546763.658,782.893772893773,799.8168498168499,821.1721611721612,814.7252747252747
2025-10-15 12:46:03.658,1760546763658,1760546763.658,821.5750915750916,792.1611721611722,798.6080586080586,821.1721611721612
2025-10-15 12:46:03.658,1760546763658,1760546763.658,847.3626373626374,792.5641025641025,795.3846153846154,823.5897435897436
2025-10-15 12:46:03.658,1760546763658,1760546763.658,803.040293040293,799.4139194139194,808.2783882783883,819.5604395604396
2025-10-15 12:46:03.659,1760546763659,1760546763.659,838.901098901099,804.2490842490843,809.4871794871796,803.4432234432235
2025-10-15 12:46:03.659,1760546763659,1760546763.659,813.1135531135532,804.2490842490843,803.4432234432235,807.8754578754579
2025-10-15 12:46:03.660,1760546763660,1760546763.66,802.6373626373627,798.2051282051282,800.6227106227107,814.3223443223443
2025-10-15 12:46:03.660,1760546763660,1760546763.66,809.4871794871796,796.1904761904763,812.7106227106227,819.1575091575091
2025-10-15 12:46:03.660,1760546763660,1760546763.66,796.5934065934066,791.3553113553114,810.6959706959707,785.3113553113553
2025-10-15 12:46:03.660,1760546763660,1760546763.66,794.1758241758242,799.4139194139194,826.4102564102565,792.5641025641025
2025-10-15 12:46:03.660,1760546763660,1760546763.66,814.3223443223443,796.1904761904763,834.0659340659341,790.1465201465202
2025-10-15 12:46:03.661,1760546763661,1760546763.661,791.3553113553114,794.1758241758242,811.0989010989011,786.1172161172161
2025-10-15 12:46:03.661,1760546763661,1760546763.661,813.5164835164835,794.1758241758242,803.4432234432235,815.1282051282052
2025-10-15 12:46:03.661,1760546763661,1760546763.661,820.7692307692308,781.6849816849817,772.4175824175825,836.4835164835165
2025-10-15 12:46:03.661,1760546763661,1760546763.661,798.6080586080586,788.1318681318681,809.4871794871796,823.992673992674
2025-10-15 12:46:03.661,1760546763661,1760546763.661,796.5934065934066,797.3992673992674,852.6007326007326,801.025641025641
2025-10-15 12:46:03.662,1760546763662,1760546763.662,821.5750915750916,797.8021978021978,821.978021978022,819.1575091575091
2025-10-15 12:46:03.662,1760546763662,1760546763.662,834.4688644688645,796.5934065934066,825.2014652014652,834.0659340659341
2025-10-15 12:46:03.663,1760546763663,1760546763.663,837.2893772893773,797.8021978021978,815.1282051282052,816.7399267399268
2025-10-15 12:46:03.663,1760546763663,1760546763.663,812.7106227106227,791.3553113553114,815.934065934066,811.0989010989011
2025-10-15 12:46:03.663,1760546763663,1760546763.663,822.7838827838829,795.3846153846154,818.7545787545788,819.5604395604396
2025-10-15 12:46:03.663,1760546763663,1760546763.663,827.2161172161173,793.7728937728938,826.8131868131868,822.3809523809524
2025-10-15 12:46:03.663,1760546763663,1760546763.663,801.8315018315019,792.5641025641025,816.3369963369963,811.9047619047619
2025-10-15 12:46:03.664,1760546763664,1760546763.664,814.7252747252747,793.7728937728938,814.3223443223443,799.4139194139194
2025-10-15 12:46:03.664,1760546763664,1760546763.664,821.1721611721612,792.1611721611722,780.8791208791209,815.934065934066
2025-10-15 12:46:03.664,1760546763664,1760546763.664,841.3186813186813,789.7435897435897,795.7875457875458,826.8131868131868
2025-10-15 12:46:03.664,1760546763664,1760546763.664,836.4835164835165,796.996336996337,842.5274725274726,816.7399267399268
2025-10-15 12:46:03.664,1760546763664,1760546763.664,789.3406593406594,796.996336996337,816.7399267399268,811.5018315018315
2025-10-15 12:46:03.665,1760546763665,1760546763.665,780.0732600732601,794.5787545787546,808.6813186813187,790.5494505494506
2025-10-15 12:46:03.665,1760546763665,1760546763.665,809.8901098901099,790.5494505494506,834.0659340659341,803.8461538461539
2025-10-15 12:46:03.666,1760546763666,1760546763.666,817.948717948718,794.1758241758242,796.5934065934066,808.6813186813187
2025-10-15 12:46:03.666,1760546763666,1760546763.666,824.3956043956044,794.981684981685,820.3663003663004,837.2893772893773
2025-10-15 12:46:03.666,1760546763666,1760546763.666,805.054945054945,796.5934065934066,826.007326007326,819.96336996337
2025-10-15 12:46:03.666,1760546763666,1760546763.666,802.2344322344322,792.967032967033,810.2930402930403,788.5347985347986
2025-10-15 12:46:03.666,1760546763666,1760546763.666,821.1721611721612,790.952380952381,834.0659340659341,805.8608058608058
2025-10-15 12:46:03.666,1760546763666,1760546763.666,814.3223443223443,791.7582417582418,811.9047619047619,785.7142857142858
2025-10-15 12:46:03.667,1760546763667,1760546763.667,791.3553113553114,786.1172161172161,770.4029304029305,812.7106227106227
2025-10-15 12:46:03.667,1760546763667,1760546763.667,811.0989010989011,787.3260073260074,823.5897435897436,819.5604395604396
2025-10-15 12:46:03.667,1760546763667,1760546763.667,838.0952380952381,795.7875457875458,846.959706959707,812.3076923076924
2025-10-15 12:46:03.667,1760546763667,1760546763.667,827.6190476190476,790.1465201465202,792.1611721611722,826.4102564102565
2025-10-15 12:46:03.667,1760546763667,1760546763.667,797.8021978021978,792.967032967033,807.0695970695971,820.7692307692308
2025-10-15 12:46:03.667,1760546763667,1760546763.667,822.3809523809524,798.2051282051282,837.2893772893773,805.054945054945
2025-10-15 12:46:03.668,1760546763668,1760546763.668,840.9157509157509,798.2051282051282,819.1575091575091,805.8608058608058
2025-10-15 12:46:03.669,1760546763669,1760546763.669,810.6959706959707,794.5787545787546,793.7728937728938,814.3223443223443
2025-10-15 12:46:03.669,1760546763669,1760546763.669,805.4578754578755,791.3553113553114,817.948717948718,798.2051282051282
2025-10-15 12:46:03.669,1760546763669,1760546763.669,798.2051282051282,793.7728937728938,834.4688644688645,796.5934065934066
2025-10-15 12:46:03.669,1760546763669,1760546763.669,799.4139194139194,795.7875457875458,826.007326007326,797.3992673992674
2025-10-15 12:46:03.669,1760546763669,1760546763.669,810.6959706959707,794.1758241758242,813.5164835164835,805.8608058608058
2025-10-15 12:46:03.670,1760546763670,1760546763.67,796.5934065934066,794.1758241758242,796.5934065934066,817.5457875457876
2025-10-15 12:46:03.670,1760546763670,1760546763.67,796.996336996337,793.7728937728938,818.3516483516484,787.3260073260074
2025-10-15 12:46:03.670,1760546763670,1760546763.67,815.1282051282052,794.5787545787546,816.3369963369963,798.2051282051282
2025-10-15 12:46:03.670,1760546763670,1760546763.67,823.992673992674,792.967032967033,797.3992673992674,820.3663003663004
2025-10-15 12:46:03.670,1760546763670,1760546763.67,819.96336996337,798.2051282051282,827.6190476190476,817.1428571428571
2025-10-15 12:46:03.670,1760546763670,1760546763.67,818.7545787545788,806.2637362637363,833.2600732600733,815.934065934066
2025-10-15 12:46:03.671,1760546763671,1760546763.671,826.8131868131868,803.8461538461539,802.2344322344322,809.0842490842491
2025-10-15 12:46:03.671,1760546763671,1760546763.671,820.3663003663004,799.0109890109891,808.6813186813187,811.0989010989011
2025-10-15 12:46:03.672,1760546763672,1760546763.672,823.5897435897436,799.8168498168499,815.5311355311355,817.1428571428571
2025-10-15 12:46:03.672,1760546763672,1760546763.672,815.1282051282052,798.6080586080586,796.5934065934066,816.3369963369963
2025-10-15 12:46:03.672,1760546763672,1760546763.672,797.3992673992674,806.2637362637363,820.3663003663004,788.1318681318681
2025-10-15 12:46:03.672,1760546763672,1760546763.672,811.9047619047619,805.054945054945,832.0512820512821,801.8315018315019
2025-10-15 12:46:03.672,1760546763672,1760546763.672,784.5054945054945,796.996336996337,794.1758241758242,793.7728937728938
2025-10-15 12:46:03.673,1760546763673,1760546763.673,792.967032967033,796.1904761904763,830.8424908424909,797.3992673992674
2025-10-15 12:46:03.673,1760546763673,1760546763.673,778.4615384615385,798.6080586080586,807.4725274725275,803.4432234432235
2025-10-15 12:46:03.673,1760546763673,1760546763.673,809.0842490842491,803.040293040293,788.5347985347986,826.4102564102565
2025-10-15 12:46:03.673,1760546763673,1760546763.673,816.3369963369963,799.0109890109891,843.3333333333334,813.5164835164835
2025-10-15 12:46:03.673,1760546763673,1760546763.673,803.4432234432235,798.2051282051282,840.5128205128206,796.5934065934066
2025-10-15 12:46:03.695,1760546763695,1760546763.695,796.5934065934066,804.2490842490843,816.7399267399268,791.7582417582418
2025-10-15 12:46:03.696,1760546763696,1760546763.696,790.1465201465202,803.4432234432235,809.4871794871796,787.3260073260074
2025-10-15 12:46:03.696,1760546763696,1760546763.696,805.054945054945,808.2783882783883,825.2014652014652,799.8168498168499
2025-10-15 12:46:03.696,1760546763696,1760546763.696,806.2637362637363,805.8608058608058,820.7692307692308,791.7582417582418
2025-10-15 12:46:03.696,1760546763696,1760546763.696,812.3076923076924,809.0842490842491,821.1721611721612,807.0695970695971
2025-10-15 12:46:03.697,1760546763697,1760546763.697,789.3406593406594,801.8315018315019,812.3076923076924,793.3699633699634
2025-10-15 12:46:03.697,1760546763697,1760546763.697,805.054945054945,799.8168498168499,822.7838827838829,790.5494505494506
2025-10-15 12:46:03.697,1760546763697,1760546763.697,796.5934065934066,801.025641025641,818.7545787545788,796.996336996337
2025-10-15 12:46:03.697,1760546763697,1760546763.697,786.5201465201466,796.5934065934066,811.9047619047619,788.9377289377289
2025-10-15 12:46:03.697,1760546763697,1760546763.697,790.952380952381,793.7728937728938,819.1575091575091,780.0732600732601
2025-10-15 12:46:03.697,1760546763697,1760546763.697,799.0109890109891,794.1758241758242,830.8424908424909,793.3699633699634
2025-10-15 12:46:03.698,1760546763698,1760546763.698,799.8168498168499,799.4139194139194,822.3809523809524,801.8315018315019
2025-10-15 12:46:03.740,1760546763740,1760546763.74,774.4322344322345,797.3992673992674,822.3809523809524,804.2490842490843
2025-10-15 12:46:03.740,1760546763740,1760546763.74,806.2637362637363,805.8608058608058,842.9304029304029,801.4285714285714
2025-10-15 12:46:03.740,1760546763740,1760546763.74,782.4908424908425,797.8021978021978,792.1611721611722,808.2783882783883
2025-10-15 12:46:03.741,1760546763741,1760546763.741,817.5457875457876,801.025641025641,811.9047619047619,809.0842490842491
2025-10-15 12:46:03.742,1760546763742,1760546763.742,802.2344322344322,793.7728937728938,798.2051282051282,798.2051282051282
2025-10-15 12:46:03.742,1760546763742,1760546763.742,788.9377289377289,802.2344322344322,809.4871794871796,787.7289377289378
2025-10-15 12:46:03.742,1760546763742,1760546763.742,803.4432234432235,802.6373626373627,820.7692307692308,799.4139194139194
2025-10-15 12:46:03.742,1760546763742,1760546763.742,805.4578754578755,795.7875457875458,805.054945054945,810.6959706959707
2025-10-15 12:46:03.742,1760546763742,1760546763.742,777.6556776556777,794.981684981685,772.8205128205128,813.1135531135532
2025-10-15 12:46:03.743,1760546763743,1760546763.743,804.2490842490843,811.5018315018315,851.3919413919414,786.5201465201466
2025-10-15 12:46:03.743,1760546763743,1760546763.743,777.2527472527473,804.6520146520147,811.9047619047619,794.1758241758242
2025-10-15 12:46:03.743,1760546763743,1760546763.743,808.6813186813187,807.8754578754579,829.6336996336996,811.5018315018315
2025-10-15 12:46:03.786,1760546763786,1760546763.786,806.6666666666667,802.6373626373627,838.0952380952381,800.6227106227107
2025-10-15 12:46:03.787,1760546763787,1760546763.787,795.3846153846154,803.040293040293,850.1831501831502,764.3589743589744
2025-10-15 12:46:03.787,1760546763787,1760546763.787,790.952380952381,809.8901098901099,836.0805860805862,772.8205128205128
2025-10-15 12:46:03.787,1760546763787,1760546763.787,779.6703296703297,805.8608058608058,831.6483516483516,801.8315018315019
2025-10-15 12:46:03.787,1760546763787,1760546763.787,769.1941391941392,791.7582417582418,829.6336996336996,794.981684981685
2025-10-15 12:46:03.787,1760546763787,1760546763.787,774.0293040293041,790.5494505494506,815.1282051282052,786.9230769230769
2025-10-15 12:46:03.788,1760546763788,1760546763.788,764.3589743589744,799.0109890109891,825.2014652014652,769.5970695970697
2025-10-15 12:46:03.788,1760546763788,1760546763.788,784.1025641025641,801.025641025641,802.6373626373627,782.893772893773
2025-10-15 12:46:03.788,1760546763788,1760546763.788,811.9047619047619,799.4139194139194,799.8168498168499,817.948717948718
2025-10-15 12:46:03.788,1760546763788,1760546763.788,797.8021978021978,807.4725274725275,852.6007326007326,796.1904761904763
2025-10-15 12:46:03.788,1760546763788,1760546763.788,782.0879120879121,803.8461538461539,840.1098901098901,770.4029304029305
2025-10-15 12:46:03.789,1760546763789,1760546763.789,800.6227106227107,790.5494505494506,830.4395604395604,785.7142857142858
2025-10-15 12:46:03.831,1760546763831,1760546763.831,821.1721611721612,794.5787545787546,844.5421245421246,809.0842490842491
2025-10-15 12:46:03.831,1760546763831,1760546763.831,817.5457875457876,799.4139194139194,837.6923076923077,809.0842490842491
2025-10-15 12:46:03.831,1760546763831,1760546763.831,790.5494505494506,796.1904761904763,814.3223443223443,784.9084249084249
2025-10-15 12:46:03.832,1760546763832,1760546763.832,792.967032967033,799.4139194139194,810.6959706959707,780.0732600732601
2025-10-15 12:46:03.832,1760546763832,1760546763.832,825.2014652014652,804.2490842490843,813.1135531135532,799.0109890109891
2025-10-15 12:46:03.832,1760546763832,1760546763.832,811.0989010989011,801.8315018315019,817.948717948718,799.4139194139194
2025-10-15 12:46:03.833,1760546763833,1760546763.833,780.4761904761905,796.5934065934066,806.6666666666667,782.893772893773
2025-10-15 12:46:03.833,1760546763833,1760546763.833,762.7472527472528,793.3699633699634,774.8351648351648,787.7289377289378
2025-10-15 12:46:03.833,1760546763833,1760546763.833,788.5347985347986,796.5934065934066,813.5164835164835,800.6227106227107
2025-10-15 12:46:03.833,1760546763833,1760546763.833,825.6043956043957,799.8168498168499,834.4688644688645,804.6520146520147
2025-10-15 12:46:03.834,1760546763834,1760546763.834,785.3113553113553,794.5787545787546,822.3809523809524,800.2197802197802
2025-10-15 12:46:03.834,1760546763834,1760546763.834,807.4725274725275,794.981684981685,807.4725274725275,805.4578754578755
2025-10-15 12:46:03.877,1760546763877,1760546763.877,791.3553113553114,792.5641025641025,826.8131868131868,803.8461538461539
2025-10-15 12:46:03.877,1760546763877,1760546763.877,803.8461538461539,790.952380952381,813.1135531135532,808.2783882783883
2025-10-15 12:46:03.878,1760546763878,1760546763.878,801.025641025641,794.1758241758242,813.919413919414,807.0695970695971
2025-10-15 12:46:03.878,1760546763878,1760546763.878,779.2673992673992,794.981684981685,825.2014652014652,784.1025641025641
2025-10-15 12:46:03.878,1760546763878,1760546763.878,799.4139194139194,794.5787545787546,822.7838827838829,778.8644688644689
2025-10-15 12:46:03.878,1760546763878,1760546763.878,820.7692307692308,784.9084249084249,801.8315018315019,789.7435897435897
2025-10-15 12:46:03.878,1760546763878,1760546763.878,792.5641025641025,778.0586080586081,769.1941391941392,809.8901098901099
2025-10-15 12:46:03.879,1760546763879,1760546763.879,819.96336996337,801.025641025641,807.4725274725275,822.3809523809524
2025-10-15 12:46:03.879,1760546763879,1760546763.879,807.8754578754579,799.8168498168499,823.5897435897436,810.2930402930403
2025-10-15 12:46:03.879,1760546763879,1760546763.879,811.9047619047619,794.5787545787546,814.3223443223443,805.8608058608058
2025-10-15 12:46:03.879,1760546763879,1760546763.879,771.2087912087912,794.5787545787546,844.1391941391942,799.4139194139194
2025-10-15 12:46:03.879,1760546763879,1760546763.879,757.9120879120879,784.5054945054945,794.5787545787546,823.1868131868132
2025-10-15 12:46:03.922,1760546763922,1760546763.922,805.054945054945,788.5347985347986,820.3663003663004,796.1904761904763
2025-10-15 12:46:03.922,1760546763922,1760546763.922,831.6483516483516,794.5787545787546,801.025641025641,815.5311355311355
2025-10-15 12:46:03.922,1760546763922,1760546763.922,833.2600732600733,796.996336996337,798.2051282051282,820.3663003663004
2025-10-15 12:46:03.923,1760546763923,1760546763.923,811.0989010989011,792.967032967033,827.2161172161173,801.8315018315019
2025-10-15 12:46:03.923,1760546763923,1760546763.923,797.8021978021978,801.025641025641,821.5750915750916,792.967032967033
2025-10-15 12:46:03.923,1760546763923,1760546763.923,813.5164835164835,805.054945054945,796.996336996337,798.6080586080586
2025-10-15 12:46:03.923,1760546763923,1760546763.923,823.992673992674,792.1611721611722,795.3846153846154,809.0842490842491
2025-10-15 12:46:03.923,1760546763923,1760546763.923,802.2344322344322,786.9230769230769,827.6190476190476,798.6080586080586
2025-10-15 12:46:03.924,1760546763924,1760546763.924,778.4615384615385,796.996336996337,845.3479853479854,787.3260073260074
2025-10-15 12:46:03.925,1760546763925,1760546763.925,805.054945054945,804.2490842490843,835.2747252747253,804.2490842490843
2025-10-15 12:46:03.925,1760546763925,1760546763.925,778.0586080586081,800.2197802197802,810.6959706959707,803.8461538461539
2025-10-15 12:46:03.925,1760546763925,1760546763.925,792.5641025641025,797.3992673992674,779.6703296703297,820.7692307692308
2025-10-15 12:46:03.968,1760546763968,1760546763.968,790.952380952381,805.054945054945,848.974358974359,786.1172161172161
2025-10-15 12:46:03.969,1760546763969,1760546763.969,781.6849816849817,805.4578754578755,829.2307692307693,774.0293040293041
2025-10-15 12:46:03.969,1760546763969,1760546763.969,818.3516483516484,811.9047619047619,828.4249084249085,789.7435897435897
2025-10-15 12:46:03.969,1760546763969,1760546763.969,811.5018315018315,806.2637362637363,820.3663003663004,801.8315018315019
2025-10-15 12:46:03.969,1760546763969,1760546763.969,776.4468864468864,799.4139194139194,828.4249084249085,772.014652014652
2025-10-15 12:46:03.969,1760546763969,1760546763.969,791.3553113553114,793.3699633699634,794.1758241758242,779.6703296703297
2025-10-15 12:46:03.970,1760546763970,1760546763.97,816.3369963369963,813.1135531135532,837.2893772893773,793.3699633699634
2025-10-15 12:46:03.970,1760546763970,1760546763.97,780.8791208791209,800.2197802197802,855.8241758241759,796.996336996337
2025-10-15 12:46:03.970,1760546763970,1760546763.97,781.2820512820513,804.2490842490843,824.7985347985348,793.3699633699634
2025-10-15 12:46:03.970,1760546763970,1760546763.97,803.4432234432235,793.7728937728938,798.2051282051282,805.4578754578755
2025-10-15 12:46:03.970,1760546763970,1760546763.97,803.8461538461539,802.2344322344322,859.4505494505495,802.6373626373627
2025-10-15 12:46:03.971,1760546763971,1760546763.971,816.7399267399268,809.4871794871796,850.989010989011,787.3260073260074
2025-10-15 12:46:04.013,1760546764013,1760546764.013,808.6813186813187,805.054945054945,813.5164835164835,783.6996336996338
2025-10-15 12:46:04.013,1760546764013,1760546764.013,788.5347985347986,800.2197802197802,798.6080586080586,780.4761904761905
2025-10-15 12:46:04.014,1760546764014,1760546764.014,779.2673992673992,796.1904761904763,821.5750915750916,780.4761904761905
2025-10-15 12:46:04.014,1760546764014,1760546764.014,803.4432234432235,797.3992673992674,834.4688644688645,776.8498168498169
2025-10-15 12:46:04.014,1760546764014,1760546764.014,811.5018315018315,799.8168498168499,804.6520146520147,782.4908424908425
2025-10-15 12:46:04.014,1760546764014,1760546764.014,784.9084249084249,799.8168498168499,795.3846153846154,789.3406593406594
2025-10-15 12:46:04.014,1760546764014,1760546764.014,778.0586080586081,796.996336996337,827.6190476190476,780.8791208791209
2025-10-15 12:46:04.015,1760546764015,1760546764.015,798.2051282051282,793.3699633699634,775.6410256410256,808.6813186813187
2025-10-15 12:46:04.015,1760546764015,1760546764.015,807.0695970695971,795.7875457875458,805.054945054945,788.5347985347986
2025-10-15 12:46:04.015,1760546764015,1760546764.015,794.981684981685,794.981684981685,823.1868131868132,775.6410256410256
2025-10-15 12:46:04.017,1760546764017,1760546764.017,782.0879120879121,796.5934065934066,824.7985347985348,791.7582417582418
2025-10-15 12:46:04.017,1760546764017,1760546764.017,805.8608058608058,801.025641025641,861.0622710622711,794.1758241758242
2025-10-15 12:46:04.061,1760546764061,1760546764.061,825.2014652014652,798.2051282051282,832.4542124542124,799.4139194139194
2025-10-15 12:46:04.061,1760546764061,1760546764.061,788.1318681318681,796.1904761904763,832.8571428571429,780.8791208791209
2025-10-15 12:46:04.061,1760546764061,1760546764.061,772.8205128205128,797.8021978021978,837.6923076923077,788.5347985347986
2025-10-15 12:46:04.062,1760546764062,1760546764.062,830.8424908424909,798.2051282051282,821.978021978022,833.6630036630037
2025-10-15 12:46:04.062,1760546764062,1760546764.062,804.2490842490843,796.5934065934066,833.2600732600733,807.4725274725275
2025-10-15 12:46:04.062,1760546764062,1760546764.062,824.3956043956044,797.3992673992674,830.8424908424909,823.992673992674
2025-10-15 12:46:04.063,1760546764063,1760546764.063,821.5750915750916,801.025641025641,818.7545787545788,815.934065934066
2025-10-15 12:46:04.063,1760546764063,1760546764.063,809.0842490842491,808.2783882783883,827.2161172161173,787.7289377289378
2025-10-15 12:46:04.063,1760546764063,1760546764.063,817.1428571428571,799.0109890109891,794.1758241758242,810.6959706959707
2025-10-15 12:46:04.063,1760546764063,1760546764.063,821.978021978022,792.967032967033,811.9047619047619,838.4981684981685
2025-10-15 12:46:04.064,1760546764064,1760546764.064,801.8315018315019,798.6080586080586,851.3919413919414,803.4432234432235
2025-10-15 12:46:04.064,1760546764064,1760546764.064,784.1025641025641,788.9377289377289,817.948717948718,782.0879120879121
2025-10-15 12:46:04.107,1760546764107,1760546764.107,801.8315018315019,784.9084249084249,834.4688644688645,814.3223443223443
2025-10-15 12:46:04.107,1760546764107,1760546764.107,778.4615384615385,780.4761904761905,809.4871794871796,807.4725274725275
2025-10-15 12:46:04.108,1760546764108,1760546764.108,799.8168498168499,783.2967032967033,800.2197802197802,799.8168498168499
2025-10-15 12:46:04.108,1760546764108,1760546764.108,814.3223443223443,791.3553113553114,815.5311355311355,809.8901098901099
2025-10-15 12:46:04.108,1760546764108,1760546764.108,815.5311355311355,789.7435897435897,828.021978021978,792.1611721611722
2025-10-15 12:46:04.108,1760546764108,1760546764.108,784.9084249084249,785.3113553113553,806.6666666666667,776.0439560439561
2025-10-15 12:46:04.109,1760546764109,1760546764.109,804.2490842490843,789.3406593406594,797.3992673992674,803.040293040293
2025-10-15 12:46:04.109,1760546764109,1760546764.109,776.8498168498169,783.2967032967033,775.2380952380953,795.7875457875458
2025-10-15 12:46:04.109,1760546764109,1760546764.109,804.2490842490843,793.7728937728938,820.3663003663004,803.040293040293
2025-10-15 12:46:04.110,1760546764110,1760546764.11,796.996336996337,788.1318681318681,815.934065934066,799.8168498168499
2025-10-15 12:46:04.110,1760546764110,1760546764.11,837.6923076923077,797.3992673992674,834.0659340659341,813.919413919414
2025-10-15 12:46:04.110,1760546764110,1760546764.11,793.7728937728938,791.7582417582418,797.3992673992674,813.1135531135532
2025-10-15 12:46:04.155,1760546764155,1760546764.155,776.8498168498169,789.7435897435897,816.7399267399268,799.4139194139194
2025-10-15 12:46:04.156,1760546764156,1760546764.156,807.8754578754579,796.5934065934066,837.6923076923077,798.6080586080586
2025-10-15 12:46:04.156,1760546764156,1760546764.156,813.1135531135532,797.3992673992674,821.978021978022,813.5164835164835
2025-10-15 12:46:04.157,1760546764157,1760546764.157,811.9047619047619,801.025641025641,818.7545787545788,817.948717948718
2025-10-15 12:46:04.157,1760546764157,1760546764.157,812.3076923076924,798.6080586080586,813.1135531135532,810.2930402930403
2025-10-15 12:46:04.157,1760546764157,1760546764.157,799.0109890109891,796.996336996337,810.6959706959707,796.1904761904763
2025-10-15 12:46:04.157,1760546764157,1760546764.157,807.8754578754579,801.8315018315019,820.7692307692308,796.5934065934066
2025-10-15 12:46:04.158,1760546764158,1760546764.158,814.7252747252747,795.7875457875458,792.1611721611722,806.6666666666667
2025-10-15 12:46:04.158,1760546764158,1760546764.158,788.9377289377289,796.996336996337,812.3076923076924,805.8608058608058
2025-10-15 12:46:04.158,1760546764158,1760546764.158,785.7142857142858,804.2490842490843,853.0036630036631,803.040293040293
2025-10-15 12:46:04.159,1760546764159,1760546764.159,798.6080586080586,804.2490842490843,825.6043956043957,803.4432234432235
2025-10-15 12:46:04.159,1760546764159,1760546764.159,823.992673992674,809.8901098901099,817.1428571428571,802.2344322344322
2025-10-15 12:46:04.202,1760546764202,1760546764.202,813.5164835164835,811.5018315018315,828.8278388278388,801.8315018315019
2025-10-15 12:46:04.203,1760546764203,1760546764.203,786.5201465201466,802.6373626373627,818.3516483516484,807.0695970695971
2025-10-15 12:46:04.203,1760546764203,1760546764.203,808.2783882783883,795.3846153846154,810.6959706959707,819.1575091575091
2025-10-15 12:46:04.204,1760546764204,1760546764.204,796.5934065934066,804.6520146520147,813.5164835164835,810.6959706959707
2025-10-15 12:46:04.204,1760546764204,1760546764.204,813.919413919414,795.7875457875458,813.5164835164835,827.6190476190476
2025-10-15 12:46:04.205,1760546764205,1760546764.205,799.4139194139194,799.8168498168499,805.4578754578755,822.3809523809524
2025-10-15 12:46:04.205,1760546764205,1760546764.205,783.6996336996338,800.6227106227107,811.9047619047619,796.996336996337
2025-10-15 12:46:04.206,1760546764206,1760546764.206,790.5494505494506,800.2197802197802,774.0293040293041,834.4688644688645
2025-10-15 12:46:04.206,1760546764206,1760546764.206,788.9377289377289,803.4432234432235,815.934065934066,813.5164835164835
2025-10-15 12:46:04.207,1760546764207,1760546764.207,802.2344322344322,808.6813186813187,849.7802197802198,810.6959706959707
2025-10-15 12:46:04.207,1760546764207,1760546764.207,792.1611721611722,796.1904761904763,813.1135531135532,821.5750915750916
2025-10-15 12:46:04.208,1760546764208,1760546764.208,792.5641025641025,790.5494505494506,815.1282051282052,808.2783882783883
2025-10-15 12:46:04.273,1760546764273,1760546764.273,792.967032967033,792.1611721611722,823.1868131868132,804.6520146520147
2025-10-15 12:46:04.274,1760546764274,1760546764.274,786.1172161172161,795.3846153846154,815.5311355311355,810.2930402930403
2025-10-15 12:46:04.277,1760546764277,1760546764.277,799.8168498168499,801.4285714285714,813.919413919414,813.1135531135532
2025-10-15 12:46:04.277,1760546764277,1760546764.277,821.978021978022,800.6227106227107,822.7838827838829,822.7838827838829
2025-10-15 12:46:04.278,1760546764278,1760546764.278,782.893772893773,792.1611721611722,786.1172161172161,804.2490842490843
2025-10-15 12:46:04.278,1760546764278,1760546764.278,807.4725274725275,792.967032967033,817.1428571428571,815.5311355311355
2025-10-15 12:46:04.278,1760546764278,1760546764.278,782.893772893773,794.1758241758242,809.0842490842491,794.981684981685
2025-10-15 12:46:04.279,1760546764279,1760546764.279,807.8754578754579,796.1904761904763,801.4285714285714,810.2930402930403
2025-10-15 12:46:04.279,1760546764279,1760546764.279,823.1868131868132,808.2783882783883,846.959706959707,801.025641025641
2025-10-15 12:46:04.279,1760546764279,1760546764.279,807.4725274725275,803.4432234432235,828.4249084249085,803.040293040293
2025-10-15 12:46:04.280,1760546764280,1760546764.28,784.9084249084249,800.6227106227107,818.7545787545788,810.6959706959707
2025-10-15 12:46:04.280,1760546764280,1760546764.28,788.5347985347986,797.8021978021978,830.8424908424909,805.054945054945
2025-10-15 12:46:04.323,1760546764323,1760546764.323,802.6373626373627,794.5787545787546,822.7838827838829,801.025641025641
2025-10-15 12:46:04.324,1760546764324,1760546764.324,794.981684981685,794.5787545787546,801.8315018315019,809.0842490842491
2025-10-15 12:46:04.325,1760546764325,1760546764.325,799.0109890109891,795.3846153846154,801.025641025641,811.5018315018315
2025-10-15 12:46:04.326,1760546764326,1760546764.326,813.919413919414,792.5641025641025,812.7106227106227,805.8608058608058
2025-10-15 12:46:04.326,1760546764326,1760546764.326,807.4725274725275,793.7728937728938,821.978021978022,823.5897435897436
2025-10-15 12:46:04.327,1760546764327,1760546764.327,799.4139194139194,790.1465201465202,793.3699633699634,804.6520146520147
2025-10-15 12:46:04.328,1760546764328,1760546764.328,793.3699633699634,792.1611721611722,780.8791208791209,823.5897435897436
2025-10-15 12:46:04.328,1760546764328,1760546764.328,811.5018315018315,790.952380952381,815.1282051282052,809.8901098901099
2025-10-15 12:46:04.329,1760546764329,1760546764.329,826.4102564102565,784.9084249084249,822.3809523809524,809.8901098901099
2025-10-15 12:46:04.330,1760546764330,1760546764.33,838.0952380952381,794.1758241758242,800.6227106227107,814.7252747252747
2025-10-15 12:46:04.330,1760546764330,1760546764.33,822.3809523809524,793.3699633699634,819.1575091575091,810.2930402930403
2025-10-15 12:46:04.331,1760546764331,1760546764.331,809.0842490842491,785.3113553113553,828.4249084249085,810.2930402930403
2025-10-15 12:46:04.354,1760546764354,1760546764.354,809.8901098901099,784.9084249084249,821.5750915750916,819.1575091575091
2025-10-15 12:46:04.355,1760546764355,1760546764.355,813.1135531135532,788.5347985347986,787.7289377289378,809.4871794871796
2025-10-15 12:46:04.355,1760546764355,1760546764.355,816.3369963369963,782.4908424908425,786.9230769230769,815.1282051282052
2025-10-15 12:46:04.356,1760546764356,1760546764.356,801.025641025641,792.5641025641025,834.0659340659341,807.0695970695971
2025-10-15 12:46:04.357,1760546764357,1760546764.357,811.9047619047619,790.1465201465202,825.2014652014652,812.7106227106227
2025-10-15 12:46:04.358,1760546764358,1760546764.358,839.3040293040293,800.2197802197802,807.0695970695971,817.5457875457876
2025-10-15 12:46:04.358,1760546764358,1760546764.358,817.5457875457876,802.6373626373627,813.1135531135532,810.6959706959707
2025-10-15 12:46:04.359,1760546764359,1760546764.359,809.8901098901099,798.2051282051282,831.6483516483516,786.1172161172161
2025-10-15 12:46:04.359,1760546764359,1760546764.359,816.3369963369963,796.996336996337,814.7252747252747,790.5494505494506
2025-10-15 12:46:04.359,1760546764359,1760546764.359,817.5457875457876,792.5641025641025,799.0109890109891,805.4578754578755
2025-10-15 12:46:04.360,1760546764360,1760546764.36,817.5457875457876,791.3553113553114,820.7692307692308,797.3992673992674
2025-10-15 12:46:04.360,1760546764360,1760546764.36,810.2930402930403,794.981684981685,830.0366300366301,790.5494505494506
2025-10-15 12:46:04.403,1760546764403,1760546764.403,815.934065934066,794.1758241758242,807.0695970695971,803.040293040293
2025-10-15 12:46:04.403,1760546764403,1760546764.403,819.1575091575091,792.1611721611722,782.0879120879121,829.6336996336996
2025-10-15 12:46:04.404,1760546764404,1760546764.404,832.0512820512821,796.996336996337,817.1428571428571,826.4102564102565
2025-10-15 12:46:04.405,1760546764405,1760546764.405,821.5750915750916,799.4139194139194,830.8424908424909,795.3846153846154
2025-10-15 12:46:04.405,1760546764405,1760546764.405,807.8754578754579,790.1465201465202,792.967032967033,789.3406593406594
2025-10-15 12:46:04.406,1760546764406,1760546764.406,819.96336996337,787.7289377289378,795.7875457875458,800.2197802197802
2025-10-15 12:46:04.406,1760546764406,1760546764.406,828.021978021978,792.5641025641025,813.5164835164835,798.6080586080586
2025-10-15 12:46:04.407,1760546764407,1760546764.407,810.2930402930403,795.3846153846154,827.2161172161173,790.1465201465202
2025-10-15 12:46:04.407,1760546764407,1760546764.407,799.8168498168499,790.952380952381,812.7106227106227,791.7582417582418
2025-10-15 12:46:04.408,1760546764408,1760546764.408,822.7838827838829,786.1172161172161,775.2380952380953,805.4578754578755
2025-10-15 12:46:04.408,1760546764408,1760546764.408,830.4395604395604,793.7728937728938,816.7399267399268,804.2490842490843
2025-10-15 12:46:04.409,1760546764409,1760546764.409,807.4725274725275,795.3846153846154,834.8717948717949,784.1025641025641
2025-10-15 12:46:04.453,1760546764453,1760546764.453,802.2344322344322,790.1465201465202,798.6080586080586,780.8791208791209
2025-10-15 12:46:04.453,1760546764453,1760546764.453,787.7289377289378,787.3260073260074,790.952380952381,777.2527472527473
2025-10-15 12:46:04.454,1760546764454,1760546764.454,819.5604395604396,795.3846153846154,828.8278388278388,786.9230769230769
2025-10-15 12:46:04.454,1760546764454,1760546764.454,806.6666666666667,790.1465201465202,809.8901098901099,774.0293040293041
2025-10-15 12:46:04.455,1760546764455,1760546764.455,782.4908424908425,793.3699633699634,801.8315018315019,759.5238095238095
2025-10-15 12:46:04.455,1760546764455,1760546764.455,790.5494505494506,796.996336996337,809.4871794871796,765.5677655677656
2025-10-15 12:46:04.457,1760546764457,1760546764.457,813.919413919414,794.981684981685,813.5164835164835,779.6703296703297
2025-10-15 12:46:04.457,1760546764457,1760546764.457,816.7399267399268,798.2051282051282,812.7106227106227,786.5201465201466
2025-10-15 12:46:04.457,1760546764457,1760546764.457,795.3846153846154,794.1758241758242,780.8791208791209,784.9084249084249
2025-10-15 12:46:04.458,1760546764458,1760546764.458,817.1428571428571,803.040293040293,841.3186813186813,784.9084249084249
2025-10-15 12:46:04.458,1760546764458,1760546764.458,816.7399267399268,800.2197802197802,818.7545787545788,782.4908424908425
2025-10-15 12:46:04.458,1760546764458,1760546764.458,794.1758241758242,794.1758241758242,802.2344322344322,785.3113553113553
2025-10-15 12:46:04.480,1760546764480,1760546764.48,793.7728937728938,800.2197802197802,828.4249084249085,765.9706959706959
2025-10-15 12:46:04.480,1760546764480,1760546764.48,803.8461538461539,796.5934065934066,817.1428571428571,774.8351648351648
2025-10-15 12:46:04.481,1760546764481,1760546764.481,808.2783882783883,793.3699633699634,809.8901098901099,772.014652014652
2025-10-15 12:46:04.481,1760546764481,1760546764.481,802.6373626373627,790.952380952381,789.3406593406594,794.5787545787546
2025-10-15 12:46:04.481,1760546764481,1760546764.481,806.2637362637363,796.1904761904763,798.6080586080586,792.967032967033
2025-10-15 12:46:04.482,1760546764482,1760546764.482,800.6227106227107,798.2051282051282,807.8754578754579,776.4468864468864
2025-10-15 12:46:04.482,1760546764482,1760546764.482,799.0109890109891,799.4139194139194,805.054945054945,785.3113553113553
2025-10-15 12:46:04.482,1760546764482,1760546764.482,799.4139194139194,793.7728937728938,797.8021978021978,796.5934065934066
2025-10-15 12:46:04.483,1760546764483,1760546764.483,791.7582417582418,794.5787545787546,767.1794871794872,814.3223443223443
2025-10-15 12:46:04.483,1760546764483,1760546764.483,792.5641025641025,803.4432234432235,801.025641025641,789.3406593406594
2025-10-15 12:46:04.483,1760546764483,1760546764.483,786.9230769230769,798.6080586080586,843.3333333333334,761.1355311355312
2025-10-15 12:46:04.483,1760546764483,1760546764.483,800.2197802197802,791.7582417582418,814.7252747252747,794.981684981685
2025-10-15 12:46:04.528,1760546764528,1760546764.528,814.7252747252747,795.3846153846154,818.3516483516484,801.8315018315019
2025-10-15 12:46:04.529,1760546764529,1760546764.529,796.1904761904763,792.5641025641025,824.3956043956044,782.4908424908425
2025-10-15 12:46:04.529,1760546764529,1760546764.529,785.7142857142858,793.7728937728938,816.3369963369963,783.2967032967033
2025-10-15 12:46:04.530,1760546764530,1760546764.53,807.4725274725275,799.0109890109891,813.919413919414,799.0109890109891
2025-10-15 12:46:04.530,1760546764530,1760546764.53,812.7106227106227,801.8315018315019,819.96336996337,804.2490842490843
2025-10-15 12:46:04.531,1760546764531,1760546764.531,796.996336996337,798.2051282051282,809.8901098901099,794.981684981685
2025-10-15 12:46:04.531,1760546764531,1760546764.531,792.967032967033,798.6080586080586,805.054945054945,789.7435897435897
2025-10-15 12:46:04.531,1760546764531,1760546764.531,790.5494505494506,802.2344322344322,785.3113553113553,803.040293040293
2025-10-15 12:46:04.533,1760546764533,1760546764.533,805.4578754578755,809.4871794871796,799.0109890109891,813.919413919414
2025-10-15 12:46:04.533,1760546764533,1760546764.533,810.2930402930403,807.0695970695971,836.0805860805862,792.1611721611722
2025-10-15 12:46:04.534,1760546764534,1760546764.534,796.5934065934066,799.4139194139194,814.7252747252747,786.5201465201466
2025-10-15 12:46:04.534,1760546764534,1760546764.534,791.7582417582418,796.1904761904763,816.3369963369963,765.5677655677656
2025-10-15 12:46:04.577,1760546764577,1760546764.577,816.3369963369963,800.2197802197802,827.6190476190476,806.2637362637363
2025-10-15 12:46:04.578,1760546764578,1760546764.578,808.6813186813187,800.6227106227107,825.2014652014652,794.981684981685
2025-10-15 12:46:04.578,1760546764578,1760546764.578,780.0732600732601,795.3846153846154,810.2930402930403,786.5201465201466
2025-10-15 12:46:04.579,1760546764579,1760546764.579,782.893772893773,793.7728937728938,805.8608058608058,792.5641025641025
2025-10-15 12:46:04.579,1760546764579,1760546764.579,812.3076923076924,793.3699633699634,811.0989010989011,799.8168498168499
2025-10-15 12:46:04.580,1760546764580,1760546764.58,809.4871794871796,793.7728937728938,815.5311355311355,808.6813186813187
2025-10-15 12:46:04.581,1760546764581,1760546764.581,790.1465201465202,794.5787545787546,802.2344322344322,809.4871794871796
2025-10-15 12:46:04.581,1760546764581,1760546764.581,785.3113553113553,791.7582417582418,759.92673992674,802.2344322344322
2025-10-15 12:46:04.582,1760546764582,1760546764.582,804.2490842490843,791.7582417582418,835.2747252747253,791.7582417582418
2025-10-15 12:46:04.582,1760546764582,1760546764.582,795.7875457875458,794.1758241758242,799.4139194139194,808.6813186813187
2025-10-15 12:46:04.583,1760546764583,1760546764.583,790.952380952381,792.1611721611722,812.3076923076924,782.4908424908425
2025-10-15 12:46:04.583,1760546764583,1760546764.583,776.0439560439561,796.1904761904763,813.5164835164835,788.9377289377289
2025-10-15 12:46:04.628,1760546764628,1760546764.628,794.1758241758242,797.8021978021978,819.1575091575091,782.4908424908425
2025-10-15 12:46:04.628,1760546764628,1760546764.628,813.5164835164835,800.2197802197802,818.7545787545788,792.1611721611722
2025-10-15 12:46:04.629,1760546764629,1760546764.629,786.5201465201466,799.4139194139194,815.1282051282052,784.9084249084249
2025-10-15 12:46:04.629,1760546764629,1760546764.629,748.6446886446887,793.7728937728938,813.919413919414,761.5384615384615
2025-10-15 12:46:04.629,1760546764629,1760546764.629,774.0293040293041,789.7435897435897,808.2783882783883,778.8644688644689
2025-10-15 12:46:04.630,1760546764630,1760546764.63,789.3406593406594,798.6080586080586,788.1318681318681,786.5201465201466
2025-10-15 12:46:04.630,1760546764630,1760546764.63,810.2930402930403,794.981684981685,813.1135531135532,791.7582417582418
2025-10-15 12:46:04.631,1760546764631,1760546764.631,793.7728937728938,792.967032967033,838.0952380952381,774.8351648351648
2025-10-15 12:46:04.631,1760546764631,1760546764.631,799.8168498168499,800.6227106227107,821.978021978022,777.6556776556777
2025-10-15 12:46:04.631,1760546764631,1760546764.631,772.8205128205128,792.1611721611722,798.6080586080586,775.6410256410256
2025-10-15 12:46:04.633,1760546764633,1760546764.633,789.3406593406594,796.5934065934066,814.3223443223443,782.4908424908425
2025-10-15 12:46:04.633,1760546764633,1760546764.633,776.4468864468864,793.3699633699634,826.8131868131868,780.0732600732601
2025-10-15 12:46:04.676,1760546764676,1760546764.676,786.1172161172161,794.981684981685,826.4102564102565,780.0732600732601
2025-10-15 12:46:04.677,1760546764677,1760546764.677,806.2637362637363,799.4139194139194,803.040293040293,802.2344322344322
2025-10-15 12:46:04.677,1760546764677,1760546764.677,802.6373626373627,801.8315018315019,796.1904761904763,807.8754578754579
2025-10-15 12:46:04.678,1760546764678,1760546764.678,790.1465201465202,791.7582417582418,815.1282051282052,793.7728937728938
2025-10-15 12:46:04.678,1760546764678,1760546764.678,792.1611721611722,787.7289377289378,811.5018315018315,797.3992673992674
2025-10-15 12:46:04.678,1760546764678,1760546764.678,808.2783882783883,799.8168498168499,793.7728937728938,812.3076923076924
2025-10-15 12:46:04.679,1760546764679,1760546764.679,801.4285714285714,794.981684981685,799.8168498168499,811.5018315018315
2025-10-15 12:46:04.679,1760546764679,1760546764.679,804.2490842490843,799.8168498168499,837.2893772893773,799.4139194139194
2025-10-15 12:46:04.679,1760546764679,1760546764.679,803.8461538461539,790.952380952381,824.3956043956044,832.4542124542124
2025-10-15 12:46:04.679,1760546764679,1760546764.679,799.4139194139194,793.3699633699634,781.6849816849817,836.0805860805862
2025-10-15 12:46:04.680,1760546764680,1760546764.68,818.3516483516484,794.981684981685,812.3076923076924,826.007326007326
2025-10-15 12:46:04.680,1760546764680,1760546764.68,838.0952380952381,800.6227106227107,838.0952380952381,811.5018315018315
2025-10-15 12:46:04.724,1760546764724,1760546764.724,819.96336996337,795.7875457875458,810.2930402930403,797.3992673992674
2025-10-15 12:46:04.725,1760546764725,1760546764.725,780.0732600732601,794.1758241758242,791.7582417582418,800.6227106227107
2025-10-15 12:46:04.725,1760546764725,1760546764.725,797.8021978021978,797.3992673992674,815.934065934066,815.5311355311355
2025-10-15 12:46:04.725,1760546764725,1760546764.725,821.978021978022,802.2344322344322,830.8424908424909,809.0842490842491
2025-10-15 12:46:04.726,1760546764726,1760546764.726,805.054945054945,802.2344322344322,813.919413919414,809.4871794871796
2025-10-15 12:46:04.726,1760546764726,1760546764.726,792.5641025641025,801.025641025641,799.4139194139194,801.025641025641
2025-10-15 12:46:04.727,1760546764727,1760546764.727,802.2344322344322,790.5494505494506,815.1282051282052,799.0109890109891
2025-10-15 12:46:04.727,1760546764727,1760546764.727,800.2197802197802,797.3992673992674,823.5897435897436,816.3369963369963
2025-10-15 12:46:04.727,1760546764727,1760546764.727,799.0109890109891,805.8608058608058,807.8754578754579,810.2930402930403
2025-10-15 12:46:04.728,1760546764728,1760546764.728,772.4175824175825,794.5787545787546,787.3260073260074,805.8608058608058
2025-10-15 12:46:04.728,1760546764728,1760546764.728,779.2673992673992,794.5787545787546,812.3076923076924,823.1868131868132
2025-10-15 12:46:04.728,1760546764728,1760546764.728,815.5311355311355,790.952380952381,833.2600732600733,821.1721611721612
2025-10-15 12:46:04.772,1760546764772,1760546764.772,813.919413919414,790.952380952381,804.2490842490843,810.6959706959707
2025-10-15 12:46:04.773,1760546764773,1760546764.773,796.1904761904763,798.2051282051282,808.2783882783883,795.7875457875458
2025-10-15 12:46:04.774,1760546764774,1760546764.774,789.7435897435897,801.8315018315019,832.4542124542124,808.6813186813187
2025-10-15 12:46:04.774,1760546764774,1760546764.774,807.8754578754579,797.3992673992674,818.7545787545788,827.6190476190476
2025-10-15 12:46:04.775,1760546764775,1760546764.775,795.7875457875458,796.1904761904763,770.8058608058608,830.4395604395604
2025-10-15 12:46:04.775,1760546764775,1760546764.775,811.0989010989011,797.8021978021978,791.7582417582418,826.007326007326
2025-10-15 12:46:04.776,1760546764776,1760546764.776,812.3076923076924,800.2197802197802,796.5934065934066,807.4725274725275
2025-10-15 12:46:04.776,1760546764776,1760546764.776,828.4249084249085,799.8168498168499,821.978021978022,803.040293040293
2025-10-15 12:46:04.776,1760546764776,1760546764.776,813.919413919414,793.7728937728938,796.996336996337,822.7838827838829
2025-10-15 12:46:04.777,1760546764777,1760546764.777,800.2197802197802,792.1611721611722,789.3406593406594,811.0989010989011
2025-10-15 12:46:04.777,1760546764777,1760546764.777,789.7435897435897,796.996336996337,830.8424908424909,793.7728937728938
2025-10-15 12:46:04.777,1760546764777,1760546764.777,806.2637362637363,799.4139194139194,825.6043956043957,813.5164835164835
2025-10-15 12:46:04.821,1760546764821,1760546764.821,799.8168498168499,796.1904761904763,812.7106227106227,820.3663003663004
2025-10-15 12:46:04.823,1760546764823,1760546764.823,780.8791208791209,806.6666666666667,827.2161172161173,802.6373626373627
2025-10-15 12:46:04.823,1760546764823,1760546764.823,791.3553113553114,807.0695970695971,821.5750915750916,796.5934065934066
2025-10-15 12:46:04.824,1760546764824,1760546764.824,819.1575091575091,799.4139194139194,803.8461538461539,815.1282051282052
2025-10-15 12:46:04.824,1760546764824,1760546764.824,802.2344322344322,799.4139194139194,804.2490842490843,804.6520146520147
2025-10-15 12:46:04.824,1760546764824,1760546764.824,803.4432234432235,794.981684981685,808.2783882783883,808.2783882783883
2025-10-15 12:46:04.825,1760546764825,1760546764.825,772.8205128205128,789.7435897435897,803.4432234432235,783.2967032967033
2025-10-15 12:46:04.825,1760546764825,1760546764.825,778.0586080586081,788.9377289377289,803.8461538461539,778.8644688644689
2025-10-15 12:46:04.826,1760546764826,1760546764.826,790.5494505494506,788.9377289377289,786.5201465201466,832.4542124542124
2025-10-15 12:46:04.826,1760546764826,1760546764.826,805.4578754578755,788.9377289377289,789.7435897435897,843.7362637362637
2025-10-15 12:46:04.827,1760546764827,1760546764.827,786.9230769230769,792.5641025641025,823.992673992674,817.5457875457876
2025-10-15 12:46:04.827,1760546764827,1760546764.827,803.8461538461539,789.7435897435897,810.2930402930403,805.054945054945
2025-10-15 12:46:04.848,1760546764848,1760546764.848,840.9157509157509,788.9377289377289,797.3992673992674,817.1428571428571
2025-10-15 12:46:04.849,1760546764849,1760546764.849,823.992673992674,790.952380952381,816.7399267399268,820.3663003663004
2025-10-15 12:46:04.851,1760546764851,1760546764.851,777.2527472527473,792.1611721611722,815.5311355311355,808.2783882783883
2025-10-15 12:46:04.851,1760546764851,1760546764.851,781.2820512820513,790.5494505494506,793.7728937728938,811.5018315018315
2025-10-15 12:46:04.852,1760546764852,1760546764.852,805.8608058608058,784.1025641025641,799.0109890109891,821.5750915750916
2025-10-15 12:46:04.852,1760546764852,1760546764.852,815.5311355311355,787.7289377289378,793.7728937728938,819.5604395604396
2025-10-15 12:46:04.852,1760546764852,1760546764.852,812.7106227106227,784.5054945054945,798.2051282051282,819.96336996337
2025-10-15 12:46:04.853,1760546764853,1760546764.853,796.1904761904763,784.9084249084249,776.8498168498169,806.6666666666667
2025-10-15 12:46:04.853,1760546764853,1760546764.853,801.8315018315019,794.5787545787546,777.6556776556777,824.7985347985348
2025-10-15 12:46:04.853,1760546764853,1760546764.853,811.9047619047619,802.2344322344322,831.2454212454213,833.2600732600733
2025-10-15 12:46:04.854,1760546764854,1760546764.854,820.7692307692308,800.6227106227107,833.6630036630037,813.5164835164835
2025-10-15 12:46:04.854,1760546764854,1760546764.854,817.1428571428571,794.981684981685,786.1172161172161,817.5457875457876
2025-10-15 12:46:04.898,1760546764898,1760546764.898,792.1611721611722,799.0109890109891,841.7216117216118,803.8461538461539
2025-10-15 12:46:04.898,1760546764898,1760546764.898,794.1758241758242,793.7728937728938,789.7435897435897,814.3223443223443
2025-10-15 12:46:04.899,1760546764899,1760546764.899,802.6373626373627,799.4139194139194,813.919413919414,803.8461538461539
2025-10-15 12:46:04.899,1760546764899,1760546764.899,794.5787545787546,798.2051282051282,826.4102564102565,802.2344322344322
2025-10-15 12:46:04.899,1760546764899,1760546764.899,814.7252747252747,797.3992673992674,821.5750915750916,798.6080586080586
2025-10-15 12:46:04.900,1760546764900,1760546764.9,807.8754578754579,792.5641025641025,812.3076923076924,800.6227106227107
2025-10-15 12:46:04.900,1760546764900,1760546764.9,806.6666666666667,798.2051282051282,808.6813186813187,810.6959706959707
2025-10-15 12:46:04.900,1760546764900,1760546764.9,803.8461538461539,800.2197802197802,794.5787545787546,817.1428571428571
2025-10-15 12:46:04.901,1760546764901,1760546764.901,804.2490842490843,803.4432234432235,811.5018315018315,793.7728937728938
2025-10-15 12:46:04.901,1760546764901,1760546764.901,825.6043956043957,810.6959706959707,845.3479853479854,790.952380952381
2025-10-15 12:46:04.901,1760546764901,1760546764.901,807.4725274725275,805.054945054945,819.5604395604396,809.4871794871796
2025-10-15 12:46:04.901,1760546764901,1760546764.901,792.1611721611722,798.2051282051282,814.3223443223443,806.2637362637363
2025-10-15 12:46:04.944,1760546764944,1760546764.944,786.5201465201466,794.981684981685,838.4981684981685,800.2197802197802
2025-10-15 12:46:04.945,1760546764945,1760546764.945,811.5018315018315,794.981684981685,802.6373626373627,829.2307692307693
2025-10-15 12:46:04.945,1760546764945,1760546764.945,797.3992673992674,792.967032967033,839.7069597069598,811.0989010989011
2025-10-15 12:46:04.946,1760546764946,1760546764.946,805.8608058608058,791.7582417582418,794.5787545787546,820.7692307692308
2025-10-15 12:46:04.947,1760546764947,1760546764.947,788.1318681318681,793.7728937728938,826.007326007326,805.054945054945
2025-10-15 12:46:04.948,1760546764948,1760546764.948,788.5347985347986,801.4285714285714,825.2014652014652,800.6227106227107
2025-10-15 12:46:04.948,1760546764948,1760546764.948,816.7399267399268,794.1758241758242,801.8315018315019,821.1721611721612
2025-10-15 12:46:04.948,1760546764948,1760546764.948,809.0842490842491,785.7142857142858,760.3296703296703,838.901098901099
2025-10-15 12:46:04.948,1760546764948,1760546764.948,791.3553113553114,788.9377289377289,799.0109890109891,807.8754578754579
2025-10-15 12:46:04.949,1760546764949,1760546764.949,792.967032967033,794.5787545787546,841.7216117216118,791.7582417582418
2025-10-15 12:46:04.949,1760546764949,1760546764.949,803.8461538461539,796.1904761904763,821.1721611721612,807.4725274725275
2025-10-15 12:46:04.949,1760546764949,1760546764.949,808.6813186813187,788.5347985347986,816.3369963369963,810.6959706959707
2025-10-15 12:46:05.014,1760546765014,1760546765.014,810.2930402930403,790.952380952381,818.7545787545788,800.2197802197802
2025-10-15 12:46:05.015,1760546765015,1760546765.015,795.7875457875458,798.2051282051282,814.3223443223443,796.996336996337
2025-10-15 12:46:05.016,1760546765016,1760546765.016,799.0109890109891,799.0109890109891,831.2454212454213,807.4725274725275
2025-10-15 12:46:05.016,1760546765016,1760546765.016,782.0879120879121,794.981684981685,802.6373626373627,806.6666666666667
2025-10-15 12:46:05.016,1760546765016,1760546765.016,797.3992673992674,797.8021978021978,826.007326007326,816.3369963369963
2025-10-15 12:46:05.017,1760546765017,1760546765.017,791.7582417582418,792.1611721611722,816.3369963369963,790.952380952381
2025-10-15 12:46:05.017,1760546765017,1760546765.017,801.025641025641,795.7875457875458,790.952380952381,803.040293040293
2025-10-15 12:46:05.017,1760546765017,1760546765.017,804.6520146520147,801.8315018315019,801.8315018315019,815.1282051282052
2025-10-15 12:46:05.018,1760546765018,1760546765.018,799.8168498168499,796.5934065934066,836.4835164835165,796.996336996337
2025-10-15 12:46:05.018,1760546765018,1760546765.018,804.2490842490843,799.8168498168499,813.919413919414,794.1758241758242
2025-10-15 12:46:05.018,1760546765018,1760546765.018,805.8608058608058,801.8315018315019,809.4871794871796,785.3113553113553
2025-10-15 12:46:05.019,1760546765019,1760546765.019,809.4871794871796,803.4432234432235,827.2161172161173,793.3699633699634
2025-10-15 12:46:05.062,1760546765062,1760546765.062,754.6886446886447,800.2197802197802,822.3809523809524,786.5201465201466
2025-10-15 12:46:05.062,1760546765062,1760546765.062,812.7106227106227,806.2637362637363,835.6776556776557,808.6813186813187
2025-10-15 12:46:05.063,1760546765063,1760546765.063,749.4505494505495,799.8168498168499,820.7692307692308,763.5531135531136
2025-10-15 12:46:05.064,1760546765064,1760546765.064,799.4139194139194,800.6227106227107,823.1868131868132,789.7435897435897
2025-10-15 12:46:05.064,1760546765064,1760546765.064,799.0109890109891,795.7875457875458,811.9047619047619,810.2930402930403
2025-10-15 12:46:05.064,1760546765064,1760546765.064,778.0586080586081,799.8168498168499,803.040293040293,788.5347985347986
2025-10-15 12:46:05.067,1760546765067,1760546765.067,786.1172161172161,804.2490842490843,785.3113553113553,798.2051282051282
2025-10-15 12:46:05.067,1760546765067,1760546765.067,801.4285714285714,804.6520146520147,814.3223443223443,803.040293040293
2025-10-15 12:46:05.068,1760546765068,1760546765.068,805.4578754578755,802.6373626373627,818.3516483516484,812.7106227106227
2025-10-15 12:46:05.068,1760546765068,1760546765.068,803.4432234432235,806.6666666666667,849.7802197802198,799.8168498168499
2025-10-15 12:46:05.068,1760546765068,1760546765.068,772.014652014652,799.4139194139194,810.2930402930403,781.2820512820513
2025-10-15 12:46:05.069,1760546765069,1760546765.069,780.0732600732601,803.040293040293,854.2124542124542,767.1794871794872
2025-10-15 12:46:05.091,1760546765091,1760546765.091,808.2783882783883,805.4578754578755,845.7509157509157,788.9377289377289
2025-10-15 12:46:05.092,1760546765092,1760546765.092,781.6849816849817,801.025641025641,832.8571428571429,786.5201465201466
2025-10-15 12:46:05.092,1760546765092,1760546765.092,768.7912087912088,794.981684981685,846.1538461538462,792.5641025641025
2025-10-15 12:46:05.093,1760546765093,1760546765.093,794.1758241758242,800.6227106227107,848.1684981684982,792.5641025641025
2025-10-15 12:46:05.093,1760546765093,1760546765.093,801.8315018315019,809.4871794871796,834.8717948717949,796.996336996337
2025-10-15 12:46:05.093,1760546765093,1760546765.093,790.1465201465202,803.8461538461539,826.007326007326,797.3992673992674
2025-10-15 12:46:05.094,1760546765094,1760546765.094,791.3553113553114,801.8315018315019,840.9157509157509,774.0293040293041
2025-10-15 12:46:05.094,1760546765094,1760546765.094,819.5604395604396,803.8461538461539,848.1684981684982,799.8168498168499
2025-10-15 12:46:05.094,1760546765094,1760546765.094,786.9230769230769,795.7875457875458,824.3956043956044,775.6410256410256
2025-10-15 12:46:05.095,1760546765095,1760546765.095,807.8754578754579,792.967032967033,803.040293040293,811.0989010989011
2025-10-15 12:46:05.095,1760546765095,1760546765.095,799.4139194139194,794.1758241758242,820.3663003663004,802.2344322344322
2025-10-15 12:46:05.095,1760546765095,1760546765.095,814.3223443223443,802.2344322344322,868.3150183150184,785.7142857142858
2025-10-15 12:46:05.138,1760546765138,1760546765.138,809.0842490842491,799.0109890109891,845.7509157509157,779.2673992673992
2025-10-15 12:46:05.139,1760546765139,1760546765.139,797.3992673992674,795.7875457875458,844.1391941391942,792.967032967033
2025-10-15 12:46:05.139,1760546765139,1760546765.139,805.4578754578755,791.3553113553114,837.6923076923077,798.6080586080586
2025-10-15 12:46:05.139,1760546765139,1760546765.139,799.8168498168499,793.3699633699634,844.5421245421246,807.4725274725275
2025-10-15 12:46:05.140,1760546765140,1760546765.14,791.7582417582418,785.3113553113553,819.1575091575091,796.5934065934066
2025-10-15 12:46:05.140,1760546765140,1760546765.14,812.7106227106227,794.981684981685,833.6630036630037,811.0989010989011
2025-10-15 12:46:05.140,1760546765140,1760546765.14,782.893772893773,786.9230769230769,826.4102564102565,790.5494505494506
2025-10-15 12:46:05.141,1760546765141,1760546765.141,801.8315018315019,798.2051282051282,834.0659340659341,812.7106227106227
2025-10-15 12:46:05.143,1760546765143,1760546765.143,800.2197802197802,791.3553113553114,801.8315018315019,815.1282051282052
2025-10-15 12:46:05.143,1760546765143,1760546765.143,793.3699633699634,798.2051282051282,819.96336996337,791.7582417582418
2025-10-15 12:46:05.143,1760546765143,1760546765.143,795.3846153846154,789.3406593406594,847.3626373626374,813.919413919414
2025-10-15 12:46:05.144,1760546765144,1760546765.144,785.3113553113553,795.7875457875458,863.4798534798535,788.9377289377289
2025-10-15 12:46:05.189,1760546765189,1760546765.189,789.7435897435897,796.996336996337,836.0805860805862,797.3992673992674
2025-10-15 12:46:05.190,1760546765190,1760546765.19,818.7545787545788,799.0109890109891,847.3626373626374,810.2930402930403
2025-10-15 12:46:05.190,1760546765190,1760546765.19,837.2893772893773,799.8168498168499,848.1684981684982,799.4139194139194
2025-10-15 12:46:05.191,1760546765191,1760546765.191,829.2307692307693,799.8168498168499,831.2454212454213,799.0109890109891
2025-10-15 12:46:05.191,1760546765191,1760546765.191,797.3992673992674,804.2490842490843,820.7692307692308,783.6996336996338
2025-10-15 12:46:05.191,1760546765191,1760546765.191,796.5934065934066,803.040293040293,817.5457875457876,787.7289377289378
2025-10-15 12:46:05.192,1760546765192,1760546765.192,821.978021978022,800.6227106227107,823.992673992674,811.9047619047619
2025-10-15 12:46:05.192,1760546765192,1760546765.192,824.7985347985348,800.2197802197802,825.6043956043957,808.2783882783883
2025-10-15 12:46:05.192,1760546765192,1760546765.192,794.1758241758242,794.1758241758242,792.967032967033,820.7692307692308
2025-10-15 12:46:05.193,1760546765193,1760546765.193,821.1721611721612,790.952380952381,829.6336996336996,813.5164835164835
2025-10-15 12:46:05.193,1760546765193,1760546765.193,794.981684981685,799.0109890109891,809.0842490842491,819.5604395604396
2025-10-15 12:46:05.193,1760546765193,1760546765.193,827.6190476190476,800.6227106227107,853.0036630036631,813.5164835164835
2025-10-15 12:46:05.235,1760546765235,1760546765.235,802.6373626373627,795.3846153846154,819.96336996337,807.8754578754579
2025-10-15 12:46:05.236,1760546765236,1760546765.236,806.6666666666667,800.2197802197802,833.2600732600733,799.0109890109891
2025-10-15 12:46:05.237,1760546765237,1760546765.237,815.5311355311355,798.6080586080586,832.4542124542124,807.0695970695971
2025-10-15 12:46:05.237,1760546765237,1760546765.237,816.7399267399268,798.6080586080586,818.7545787545788,821.5750915750916
2025-10-15 12:46:05.237,1760546765237,1760546765.237,816.7399267399268,798.6080586080586,811.9047619047619,809.0842490842491
2025-10-15 12:46:05.238,1760546765238,1760546765.238,807.8754578754579,790.952380952381,818.7545787545788,800.2197802197802
2025-10-15 12:46:05.238,1760546765238,1760546765.238,803.4432234432235,797.3992673992674,823.5897435897436,789.7435897435897
2025-10-15 12:46:05.239,1760546765239,1760546765.239,817.5457875457876,787.3260073260074,782.4908424908425,829.2307692307693
2025-10-15 12:46:05.239,1760546765239,1760546765.239,796.996336996337,794.1758241758242,823.992673992674,802.6373626373627
2025-10-15 12:46:05.239,1760546765239,1760546765.239,816.7399267399268,785.3113553113553,803.040293040293,823.5897435897436
2025-10-15 12:46:05.241,1760546765241,1760546765.241,800.6227106227107,798.6080586080586,848.974358974359,792.5641025641025
2025-10-15 12:46:05.241,1760546765241,1760546765.241,823.992673992674,794.1758241758242,818.3516483516484,814.3223443223443
2025-10-15 12:46:05.285,1760546765285,1760546765.285,819.96336996337,794.981684981685,823.992673992674,814.3223443223443
2025-10-15 12:46:05.286,1760546765286,1760546765.286,780.4761904761905,801.025641025641,826.8131868131868,798.6080586080586
2025-10-15 12:46:05.286,1760546765286,1760546765.286,785.3113553113553,796.5934065934066,813.1135531135532,797.8021978021978
2025-10-15 12:46:05.287,1760546765287,1760546765.287,816.7399267399268,794.981684981685,809.0842490842491,828.8278388278388
2025-10-15 12:46:05.287,1760546765287,1760546765.287,824.3956043956044,796.996336996337,828.4249084249085,817.5457875457876
2025-10-15 12:46:05.287,1760546765287,1760546765.287,819.96336996337,797.8021978021978,826.4102564102565,795.3846153846154
2025-10-15 12:46:05.288,1760546765288,1760546765.288,818.7545787545788,791.3553113553114,791.7582417582418,828.021978021978
2025-10-15 12:46:05.288,1760546765288,1760546765.288,829.6336996336996,793.7728937728938,811.0989010989011,811.9047619047619
2025-10-15 12:46:05.288,1760546765288,1760546765.288,804.6520146520147,795.7875457875458,815.1282051282052,818.7545787545788
2025-10-15 12:46:05.289,1760546765289,1760546765.289,811.9047619047619,803.040293040293,847.7655677655678,796.996336996337
2025-10-15 12:46:05.289,1760546765289,1760546765.289,795.7875457875458,801.8315018315019,827.6190476190476,794.5787545787546
2025-10-15 12:46:05.289,1760546765289,1760546765.289,806.6666666666667,792.967032967033,826.4102564102565,800.2197802197802
2025-10-15 12:46:05.332,1760546765332,1760546765.332,803.4432234432235,795.3846153846154,834.0659340659341,814.7252747252747
2025-10-15 12:46:05.333,1760546765333,1760546765.333,794.981684981685,798.2051282051282,827.2161172161173,815.1282051282052
2025-10-15 12:46:05.334,1760546765334,1760546765.334,778.8644688644689,796.1904761904763,813.1135531135532,795.7875457875458
2025-10-15 12:46:05.334,1760546765334,1760546765.334,788.1318681318681,796.996336996337,813.1135531135532,810.2930402930403
2025-10-15 12:46:05.335,1760546765335,1760546765.335,798.6080586080586,803.040293040293,826.4102564102565,813.919413919414
2025-10-15 12:46:05.335,1760546765335,1760546765.335,798.6080586080586,804.2490842490843,821.978021978022,823.5897435897436
2025-10-15 12:46:05.336,1760546765336,1760546765.336,786.5201465201466,798.2051282051282,774.0293040293041,810.2930402930403
2025-10-15 12:46:05.336,1760546765336,1760546765.336,801.025641025641,800.6227106227107,814.7252747252747,801.8315018315019
2025-10-15 12:46:05.337,1760546765337,1760546765.337,803.8461538461539,792.5641025641025,799.8168498168499,817.5457875457876
2025-10-15 12:46:05.337,1760546765337,1760546765.337,821.5750915750916,796.1904761904763,843.7362637362637,806.2637362637363
2025-10-15 12:46:05.337,1760546765337,1760546765.337,789.3406593406594,801.8315018315019,832.0512820512821,795.3846153846154
2025-10-15 12:46:05.338,1760546765338,1760546765.338,790.5494505494506,803.040293040293,837.6923076923077,776.4468864468864
2025-10-15 12:46:05.383,1760546765383,1760546765.383,826.007326007326,803.4432234432235,838.901098901099,783.2967032967033
2025-10-15 12:46:05.384,1760546765384,1760546765.384,823.1868131868132,799.4139194139194,818.3516483516484,804.2490842490843
2025-10-15 12:46:05.385,1760546765385,1760546765.385,818.3516483516484,797.8021978021978,810.2930402930403,810.6959706959707
2025-10-15 12:46:05.385,1760546765385,1760546765.385,801.4285714285714,795.7875457875458,825.2014652014652,793.7728937728938
2025-10-15 12:46:05.385,1760546765385,1760546765.385,794.1758241758242,793.3699633699634,829.2307692307693,784.9084249084249
2025-10-15 12:46:05.386,1760546765386,1760546765.386,788.5347985347986,788.5347985347986,794.5787545787546,800.6227106227107
2025-10-15 12:46:05.386,1760546765386,1760546765.386,805.8608058608058,790.5494505494506,786.1172161172161,814.7252747252747
2025-10-15 12:46:05.386,1760546765386,1760546765.386,812.7106227106227,794.5787545787546,809.8901098901099,803.8461538461539
2025-10-15 12:46:05.387,1760546765387,1760546765.387,813.5164835164835,801.025641025641,829.6336996336996,798.2051282051282
2025-10-15 12:46:05.387,1760546765387,1760546765.387,826.4102564102565,805.4578754578755,832.8571428571429,805.8608058608058
2025-10-15 12:46:05.387,1760546765387,1760546765.387,809.8901098901099,799.4139194139194,818.7545787545788,813.5164835164835
2025-10-15 12:46:05.388,1760546765388,1760546765.388,797.3992673992674,802.6373626373627,839.3040293040293,798.6080586080586
2025-10-15 12:46:05.430,1760546765430,1760546765.43,806.6666666666667,806.2637362637363,840.9157509157509,790.5494505494506
2025-10-15 12:46:05.431,1760546765431,1760546765.431,824.3956043956044,807.8754578754579,820.3663003663004,808.6813186813187
2025-10-15 12:46:05.432,1760546765432,1760546765.432,806.2637362637363,800.6227106227107,819.5604395604396,813.1135531135532
2025-10-15 12:46:05.432,1760546765432,1760546765.432,795.3846153846154,797.8021978021978,832.4542124542124,807.8754578754579
2025-10-15 12:46:05.433,1760546765433,1760546765.433,803.8461538461539,797.8021978021978,792.967032967033,811.9047619047619
2025-10-15 12:46:05.433,1760546765433,1760546765.433,799.4139194139194,798.2051282051282,817.5457875457876,794.5787545787546
2025-10-15 12:46:05.434,1760546765434,1760546765.434,823.1868131868132,797.3992673992674,785.3113553113553,823.5897435897436
2025-10-15 12:46:05.434,1760546765434,1760546765.434,821.5750915750916,800.6227106227107,819.5604395604396,810.2930402930403
2025-10-15 12:46:05.434,1760546765434,1760546765.434,797.3992673992674,806.2637362637363,840.1098901098901,794.1758241758242
2025-10-15 12:46:05.435,1760546765435,1760546765.435,790.952380952381,801.025641025641,799.0109890109891,794.981684981685
2025-10-15 12:46:05.435,1760546765435,1760546765.435,798.6080586080586,795.7875457875458,784.1025641025641,805.8608058608058
2025-10-15 12:46:05.435,1760546765435,1760546765.435,817.5457875457876,798.6080586080586,828.021978021978,791.7582417582418
2025-10-15 12:46:05.480,1760546765480,1760546765.48,807.4725274725275,799.8168498168499,826.4102564102565,779.2673992673992
2025-10-15 12:46:05.480,1760546765480,1760546765.48,801.4285714285714,794.5787545787546,798.2051282051282,794.1758241758242
2025-10-15 12:46:05.482,1760546765482,1760546765.482,823.992673992674,796.996336996337,816.3369963369963,794.981684981685
2025-10-15 12:46:05.482,1760546765482,1760546765.482,828.021978021978,793.3699633699634,809.8901098901099,809.4871794871796
2025-10-15 12:46:05.483,1760546765483,1760546765.483,798.6080586080586,799.0109890109891,799.0109890109891,778.0586080586081
2025-10-15 12:46:05.483,1760546765483,1760546765.483,785.3113553113553,793.3699633699634,792.967032967033,803.040293040293
2025-10-15 12:46:05.484,1760546765484,1760546765.484,791.3553113553114,793.3699633699634,808.6813186813187,814.7252747252747
2025-10-15 12:46:05.484,1760546765484,1760546765.484,822.7838827838829,801.4285714285714,835.2747252747253,801.4285714285714
2025-10-15 12:46:05.484,1760546765484,1760546765.484,807.4725274725275,801.025641025641,822.3809523809524,787.3260073260074
2025-10-15 12:46:05.485,1760546765485,1760546765.485,809.0842490842491,799.8168498168499,830.4395604395604,797.3992673992674
2025-10-15 12:46:05.485,1760546765485,1760546765.485,782.4908424908425,801.8315018315019,807.4725274725275,788.1318681318681
2025-10-15 12:46:05.485,1760546765485,1760546765.485,804.2490842490843,802.2344322344322,828.8278388278388,808.6813186813187
2025-10-15 12:46:05.528,1760546765528,1760546765.528,807.8754578754579,799.4139194139194,805.054945054945,782.4908424908425
2025-10-15 12:46:05.529,1760546765529,1760546765.529,795.7875457875458,795.7875457875458,821.978021978022,788.5347985347986
2025-10-15 12:46:05.529,1760546765529,1760546765.529,794.5787545787546,795.3846153846154,799.8168498168499,784.1025641025641
2025-10-15 12:46:05.530,1760546765530,1760546765.53,803.4432234432235,802.6373626373627,800.6227106227107,801.8315018315019
2025-10-15 12:46:05.530,1760546765530,1760546765.53,787.7289377289378,805.4578754578755,781.6849816849817,813.919413919414
2025-10-15 12:46:05.530,1760546765530,1760546765.53,811.0989010989011,801.4285714285714,823.992673992674,788.5347985347986
2025-10-15 12:46:05.531,1760546765531,1760546765.531,799.0109890109891,792.967032967033,804.2490842490843,800.6227106227107
2025-10-15 12:46:05.531,1760546765531,1760546765.531,783.2967032967033,799.0109890109891,815.934065934066,788.9377289377289
2025-10-15 12:46:05.531,1760546765531,1760546765.531,801.4285714285714,790.1465201465202,839.3040293040293,783.2967032967033
2025-10-15 12:46:05.532,1760546765532,1760546765.532,786.9230769230769,796.996336996337,796.996336996337,793.3699633699634
2025-10-15 12:46:05.532,1760546765532,1760546765.532,795.7875457875458,801.4285714285714,836.4835164835165,774.8351648351648
2025-10-15 12:46:05.532,1760546765532,1760546765.532,816.3369963369963,801.8315018315019,826.007326007326,788.1318681318681
2025-10-15 12:46:05.576,1760546765576,1760546765.576,805.8608058608058,802.2344322344322,819.96336996337,799.4139194139194
2025-10-15 12:46:05.577,1760546765577,1760546765.577,794.1758241758242,802.6373626373627,830.8424908424909,787.7289377289378
2025-10-15 12:46:05.577,1760546765577,1760546765.577,805.8608058608058,804.2490842490843,825.6043956043957,782.893772893773
2025-10-15 12:46:05.578,1760546765578,1760546765.578,808.2783882783883,803.8461538461539,814.7252747252747,795.3846153846154
2025-10-15 12:46:05.579,1760546765579,1760546765.579,797.3992673992674,793.7728937728938,802.2344322344322,784.9084249084249
2025-10-15 12:46:05.580,1760546765580,1760546765.58,784.5054945054945,794.5787545787546,832.4542124542124,787.7289377289378
2025-10-15 12:46:05.580,1760546765580,1760546765.58,766.3736263736264,794.1758241758242,826.4102564102565,786.5201465201466
2025-10-15 12:46:05.580,1760546765580,1760546765.58,781.2820512820513,790.952380952381,813.1135531135532,784.1025641025641
2025-10-15 12:46:05.581,1760546765581,1760546765.581,800.2197802197802,791.7582417582418,802.2344322344322,823.992673992674
2025-10-15 12:46:05.581,1760546765581,1760546765.581,789.3406593406594,792.967032967033,804.6520146520147,813.5164835164835
2025-10-15 12:46:05.581,1760546765581,1760546765.581,776.0439560439561,789.3406593406594,852.1978021978023,770.0
2025-10-15 12:46:05.581,1760546765581,1760546765.581,784.5054945054945,793.7728937728938,824.7985347985348,775.6410256410256
2025-10-15 12:46:05.602,1760546765602,1760546765.602,785.3113553113553,794.1758241758242,814.3223443223443,801.8315018315019
2025-10-15 12:46:05.603,1760546765603,1760546765.603,782.4908424908425,786.1172161172161,844.1391941391942,797.8021978021978
2025-10-15 12:46:05.603,1760546765603,1760546765.603,795.3846153846154,792.1611721611722,839.3040293040293,774.8351648351648
2025-10-15 12:46:05.603,1760546765603,1760546765.603,785.7142857142858,794.5787545787546,819.5604395604396,782.0879120879121
2025-10-15 12:46:05.604,1760546765604,1760546765.604,760.3296703296703,793.3699633699634,817.5457875457876,787.7289377289378
2025-10-15 12:46:05.604,1760546765604,1760546765.604,780.8791208791209,795.3846153846154,829.6336996336996,799.8168498168499
2025-10-15 12:46:05.604,1760546765604,1760546765.604,783.2967032967033,792.5641025641025,818.3516483516484,799.8168498168499
2025-10-15 12:46:05.604,1760546765604,1760546765.604,783.2967032967033,791.3553113553114,812.7106227106227,795.3846153846154
2025-10-15 12:46:05.605,1760546765605,1760546765.605,769.5970695970697,784.1025641025641,778.0586080586081,809.0842490842491
2025-10-15 12:46:05.605,1760546765605,1760546765.605,799.8168498168499,788.5347985347986,824.7985347985348,808.6813186813187
2025-10-15 12:46:05.605,1760546765605,1760546765.605,807.0695970695971,792.967032967033,858.6446886446887,792.967032967033
2025-10-15 12:46:05.606,1760546765606,1760546765.606,803.040293040293,789.7435897435897,816.3369963369963,800.6227106227107
2025-10-15 12:46:05.650,1760546765650,1760546765.65,800.2197802197802,794.981684981685,815.934065934066,805.8608058608058
2025-10-15 12:46:05.651,1760546765651,1760546765.651,802.2344322344322,792.5641025641025,838.901098901099,810.6959706959707
2025-10-15 12:46:05.651,1760546765651,1760546765.651,813.5164835164835,788.9377289377289,825.2014652014652,827.2161172161173
2025-10-15 12:46:05.651,1760546765651,1760546765.651,802.2344322344322,791.7582417582418,821.5750915750916,806.2637362637363
2025-10-15 12:46:05.652,1760546765652,1760546765.652,796.1904761904763,798.6080586080586,829.6336996336996,806.2637362637363
2025-10-15 12:46:05.652,1760546765652,1760546765.652,787.7289377289378,795.7875457875458,831.2454212454213,788.9377289377289
2025-10-15 12:46:05.654,1760546765654,1760546765.654,801.025641025641,796.5934065934066,827.2161172161173,818.7545787545788
2025-10-15 12:46:05.654,1760546765654,1760546765.654,788.1318681318681,792.5641025641025,798.6080586080586,820.3663003663004
2025-10-15 12:46:05.655,1760546765655,1760546765.655,781.2820512820513,795.7875457875458,800.6227106227107,804.2490842490843
2025-10-15 12:46:05.655,1760546765655,1760546765.655,809.4871794871796,805.8608058608058,832.0512820512821,783.2967032967033
2025-10-15 12:46:05.655,1760546765655,1760546765.655,810.2930402930403,805.8608058608058,819.5604395604396,782.4908424908425
2025-10-15 12:46:05.656,1760546765656,1760546765.656,787.7289377289378,799.0109890109891,813.5164835164835,789.3406593406594
2025-10-15 12:46:05.698,1760546765698,1760546765.698,782.4908424908425,797.8021978021978,824.7985347985348,768.3882783882784
2025-10-15 12:46:05.699,1760546765699,1760546765.699,803.8461538461539,794.1758241758242,825.2014652014652,811.9047619047619
2025-10-15 12:46:05.699,1760546765699,1760546765.699,799.4139194139194,798.6080586080586,835.6776556776557,778.4615384615385
2025-10-15 12:46:05.700,1760546765700,1760546765.7,789.7435897435897,799.4139194139194,822.7838827838829,796.996336996337
2025-10-15 12:46:05.700,1760546765700,1760546765.7,807.8754578754579,791.7582417582418,812.7106227106227,795.3846153846154
2025-10-15 12:46:05.700,1760546765700,1760546765.7,786.5201465201466,793.7728937728938,818.3516483516484,786.1172161172161
2025-10-15 12:46:05.701,1760546765701,1760546765.701,807.4725274725275,798.2051282051282,807.4725274725275,809.0842490842491
2025-10-15 12:46:05.701,1760546765701,1760546765.701,794.981684981685,791.3553113553114,772.4175824175825,817.948717948718
2025-10-15 12:46:05.701,1760546765701,1760546765.701,800.6227106227107,792.5641025641025,816.3369963369963,803.4432234432235
2025-10-15 12:46:05.702,1760546765702,1760546765.702,796.1904761904763,791.3553113553114,852.1978021978023,783.2967032967033
2025-10-15 12:46:05.702,1760546765702,1760546765.702,804.2490842490843,788.1318681318681,825.6043956043957,790.952380952381
2025-10-15 12:46:05.702,1760546765702,1760546765.702,810.6959706959707,797.8021978021978,819.5604395604396,807.8754578754579
2025-10-15 12:46:05.768,1760546765768,1760546765.768,801.8315018315019,803.040293040293,831.6483516483516,799.8168498168499
2025-10-15 12:46:05.768,1760546765768,1760546765.768,793.3699633699634,799.0109890109891,832.8571428571429,788.5347985347986
2025-10-15 12:46:05.769,1760546765769,1760546765.769,804.6520146520147,800.6227106227107,836.0805860805862,801.025641025641
2025-10-15 12:46:05.769,1760546765769,1760546765.769,789.3406593406594,795.3846153846154,807.8754578754579,806.6666666666667
2025-10-15 12:46:05.769,1760546765769,1760546765.769,813.5164835164835,797.8021978021978,821.5750915750916,815.1282051282052
2025-10-15 12:46:05.770,1760546765770,1760546765.77,782.0879120879121,801.8315018315019,823.992673992674,783.2967032967033
2025-10-15 12:46:05.770,1760546765770,1760546765.77,805.8608058608058,801.025641025641,796.1904761904763,801.8315018315019
2025-10-15 12:46:05.770,1760546765770,1760546765.77,815.1282051282052,794.1758241758242,805.054945054945,812.7106227106227
2025-10-15 12:46:05.772,1760546765772,1760546765.772,797.8021978021978,795.3846153846154,842.1245421245421,782.893772893773
2025-10-15 12:46:05.773,1760546765773,1760546765.773,801.4285714285714,792.967032967033,824.7985347985348,787.3260073260074
2025-10-15 12:46:05.773,1760546765773,1760546765.773,777.2527472527473,793.3699633699634,824.3956043956044,773.6263736263736
2025-10-15 12:46:05.773,1760546765773,1760546765.773,776.8498168498169,791.3553113553114,810.2930402930403,774.4322344322345
2025-10-15 12:46:05.795,1760546765795,1760546765.795,795.3846153846154,794.5787545787546,803.8461538461539,798.2051282051282
2025-10-15 12:46:05.795,1760546765795,1760546765.795,797.3992673992674,803.4432234432235,814.7252747252747,786.5201465201466
2025-10-15 12:46:05.795,1760546765795,1760546765.795,818.7545787545788,796.996336996337,826.8131868131868,796.1904761904763
2025-10-15 12:46:05.796,1760546765796,1760546765.796,830.8424908424909,794.5787545787546,821.5750915750916,814.3223443223443
2025-10-15 12:46:05.796,1760546765796,1760546765.796,823.1868131868132,796.996336996337,819.96336996337,814.3223443223443
2025-10-15 12:46:05.796,1760546765796,1760546765.796,797.3992673992674,791.3553113553114,800.2197802197802,811.5018315018315
2025-10-15 12:46:05.797,1760546765797,1760546765.797,787.7289377289378,789.3406593406594,772.4175824175825,805.4578754578755
2025-10-15 12:46:05.797,1760546765797,1760546765.797,819.96336996337,798.2051282051282,804.6520146520147,812.7106227106227
2025-10-15 12:46:05.797,1760546765797,1760546765.797,843.7362637362637,800.2197802197802,843.3333333333334,817.5457875457876
2025-10-15 12:46:05.797,1760546765797,1760546765.797,811.0989010989011,792.5641025641025,817.948717948718,815.1282051282052
2025-10-15 12:46:05.798,1760546765798,1760546765.798,798.6080586080586,800.6227106227107,828.8278388278388,802.2344322344322
2025-10-15 12:46:05.798,1760546765798,1760546765.798,779.2673992673992,794.5787545787546,815.1282051282052,806.6666666666667
2025-10-15 12:46:05.842,1760546765842,1760546765.842,833.2600732600733,805.8608058608058,824.7985347985348,809.0842490842491
2025-10-15 12:46:05.843,1760546765843,1760546765.843,817.1428571428571,803.040293040293,810.2930402930403,798.6080586080586
2025-10-15 12:46:05.844,1760546765844,1760546765.844,800.2197802197802,795.7875457875458,816.3369963369963,799.0109890109891
2025-10-15 12:46:05.844,1760546765844,1760546765.844,792.967032967033,795.7875457875458,818.7545787545788,801.025641025641
2025-10-15 12:46:05.844,1760546765844,1760546765.844,796.1904761904763,792.1611721611722,808.2783882783883,795.3846153846154
2025-10-15 12:46:05.845,1760546765845,1760546765.845,799.8168498168499,788.5347985347986,792.967032967033,814.3223443223443
2025-10-15 12:46:05.845,1760546765845,1760546765.845,772.8205128205128,792.1611721611722,805.054945054945,804.6520146520147
2025-10-15 12:46:05.845,1760546765845,1760546765.845,766.7765567765568,797.8021978021978,830.4395604395604,776.0439560439561
2025-10-15 12:46:05.846,1760546765846,1760546765.846,808.6813186813187,798.6080586080586,819.96336996337,791.3553113553114
2025-10-15 12:46:05.846,1760546765846,1760546765.846,822.7838827838829,792.1611721611722,795.7875457875458,805.054945054945
2025-10-15 12:46:05.848,1760546765848,1760546765.848,797.8021978021978,792.1611721611722,830.8424908424909,804.6520146520147
2025-10-15 12:46:05.848,1760546765848,1760546765.848,786.5201465201466,794.1758241758242,846.959706959707,800.2197802197802
2025-10-15 12:46:05.890,1760546765890,1760546765.89,799.8168498168499,794.1758241758242,811.5018315018315,803.040293040293
2025-10-15 12:46:05.891,1760546765891,1760546765.891,812.7106227106227,796.996336996337,808.6813186813187,811.0989010989011
2025-10-15 12:46:05.891,1760546765891,1760546765.891,802.6373626373627,796.1904761904763,831.6483516483516,801.8315018315019
2025-10-15 12:46:05.892,1760546765892,1760546765.892,794.5787545787546,793.7728937728938,829.2307692307693,786.1172161172161
2025-10-15 12:46:05.892,1760546765892,1760546765.892,806.6666666666667,796.1904761904763,789.3406593406594,794.981684981685
2025-10-15 12:46:05.892,1760546765892,1760546765.892,822.7838827838829,788.9377289377289,777.6556776556777,811.0989010989011
2025-10-15 12:46:05.893,1760546765893,1760546765.893,823.1868131868132,790.5494505494506,817.1428571428571,803.8461538461539
2025-10-15 12:46:05.893,1760546765893,1760546765.893,804.6520146520147,799.0109890109891,822.7838827838829,803.8461538461539
2025-10-15 12:46:05.893,1760546765893,1760546765.893,797.3992673992674,793.7728937728938,799.4139194139194,807.0695970695971
2025-10-15 12:46:05.894,1760546765894,1760546765.894,834.0659340659341,789.3406593406594,824.3956043956044,822.3809523809524
2025-10-15 12:46:05.894,1760546765894,1760546765.894,812.3076923076924,789.3406593406594,846.959706959707,794.1758241758242
2025-10-15 12:46:05.894,1760546765894,1760546765.894,817.1428571428571,786.9230769230769,776.4468864468864,824.3956043956044
2025-10-15 12:46:05.960,1760546765960,1760546765.96,797.3992673992674,792.967032967033,823.5897435897436,791.7582417582418
2025-10-15 12:46:05.961,1760546765961,1760546765.961,815.1282051282052,798.6080586080586,832.0512820512821,806.6666666666667
2025-10-15 12:46:05.961,1760546765961,1760546765.961,820.7692307692308,800.2197802197802,832.4542124542124,815.1282051282052
2025-10-15 12:46:05.961,1760546765961,1760546765.961,818.3516483516484,799.4139194139194,819.1575091575091,801.4285714285714
2025-10-15 12:46:05.962,1760546765962,1760546765.962,801.4285714285714,796.1904761904763,813.1135531135532,783.2967032967033
2025-10-15 12:46:05.962,1760546765962,1760546765.962,795.3846153846154,802.6373626373627,814.3223443223443,787.3260073260074
2025-10-15 12:46:05.963,1760546765963,1760546765.963,794.1758241758242,799.4139194139194,794.981684981685,791.3553113553114
2025-10-15 12:46:05.963,1760546765963,1760546765.963,806.2637362637363,803.040293040293,817.948717948718,796.1904761904763
2025-10-15 12:46:05.963,1760546765963,1760546765.963,810.2930402930403,804.2490842490843,829.2307692307693,786.5201465201466
2025-10-15 12:46:05.964,1760546765964,1760546765.964,811.5018315018315,801.025641025641,837.6923076923077,792.5641025641025
2025-10-15 12:46:05.964,1760546765964,1760546765.964,795.7875457875458,801.8315018315019,851.7948717948718,786.1172161172161
2025-10-15 12:46:05.964,1760546765964,1760546765.964,784.5054945054945,794.1758241758242,801.025641025641,794.981684981685
2025-10-15 12:46:05.987,1760546765987,1760546765.987,795.7875457875458,795.3846153846154,820.7692307692308,783.2967032967033
2025-10-15 12:46:05.988,1760546765988,1760546765.988,787.7289377289378,802.2344322344322,841.7216117216118,777.2527472527473
2025-10-15 12:46:05.988,1760546765988,1760546765.988,818.7545787545788,809.4871794871796,850.5860805860806,799.0109890109891
2025-10-15 12:46:05.988,1760546765988,1760546765.988,825.6043956043957,813.1135531135532,837.6923076923077,816.7399267399268
2025-10-15 12:46:05.988,1760546765988,1760546765.988,805.8608058608058,805.4578754578755,823.5897435897436,801.8315018315019
2025-10-15 12:46:05.989,1760546765989,1760546765.989,800.2197802197802,800.6227106227107,832.0512820512821,781.6849816849817
2025-10-15 12:46:05.989,1760546765989,1760546765.989,804.6520146520147,803.8461538461539,836.0805860805862,791.3553113553114
2025-10-15 12:46:05.989,1760546765989,1760546765.989,810.2930402930403,803.040293040293,821.5750915750916,803.8461538461539
2025-10-15 12:46:05.989,1760546765989,1760546765.989,801.8315018315019,803.040293040293,790.1465201465202,818.7545787545788
2025-10-15 12:46:05.990,1760546765990,1760546765.99,809.8901098901099,801.025641025641,822.3809523809524,814.7252747252747
2025-10-15 12:46:05.990,1760546765990,1760546765.99,782.893772893773,794.5787545787546,822.7838827838829,794.5787545787546
2025-10-15 12:46:05.990,1760546765990,1760546765.99,781.6849816849817,793.7728937728938,857.8388278388279,781.2820512820513
2025-10-15 12:46:06.055,1760546766055,1760546766.055,816.3369963369963,802.6373626373627,818.3516483516484,815.934065934066
2025-10-15 12:46:06.056,1760546766056,1760546766.056,788.1318681318681,807.4725274725275,857.032967032967,784.9084249084249
2025-10-15 12:46:06.056,1760546766056,1760546766.056,787.3260073260074,809.0842490842491,853.4065934065934,771.6117216117216
2025-10-15 12:46:06.056,1760546766056,1760546766.056,794.5787545787546,801.025641025641,824.3956043956044,791.7582417582418
2025-10-15 12:46:06.057,1760546766057,1760546766.057,788.1318681318681,802.6373626373627,831.2454212454213,779.2673992673992
2025-10-15 12:46:06.057,1760546766057,1760546766.057,803.4432234432235,799.0109890109891,834.4688644688645,803.4432234432235
2025-10-15 12:46:06.057,1760546766057,1760546766.057,803.8461538461539,799.8168498168499,835.6776556776557,787.7289377289378
2025-10-15 12:46:06.058,1760546766058,1760546766.058,804.2490842490843,808.6813186813187,854.6153846153846,798.2051282051282
2025-10-15 12:46:06.058,1760546766058,1760546766.058,805.8608058608058,803.8461538461539,818.3516483516484,801.4285714285714
2025-10-15 12:46:06.058,1760546766058,1760546766.058,785.7142857142858,800.6227106227107,808.6813186813187,793.7728937728938
2025-10-15 12:46:06.059,1760546766059,1760546766.059,785.7142857142858,800.2197802197802,831.6483516483516,783.2967032967033
2025-10-15 12:46:06.059,1760546766059,1760546766.059,802.6373626373627,803.8461538461539,818.3516483516484,778.8644688644689
2025-10-15 12:46:06.081,1760546766081,1760546766.081,811.9047619047619,802.6373626373627,830.4395604395604,799.0109890109891
2025-10-15 12:46:06.082,1760546766082,1760546766.082,804.6520146520147,794.1758241758242,834.0659340659341,796.996336996337
2025-10-15 12:46:06.084,1760546766084,1760546766.084,789.3406593406594,800.2197802197802,817.5457875457876,782.0879120879121
2025-10-15 12:46:06.084,1760546766084,1760546766.084,798.6080586080586,808.2783882783883,822.3809523809524,788.1318681318681
2025-10-15 12:46:06.085,1760546766085,1760546766.085,792.5641025641025,799.4139194139194,838.0952380952381,807.8754578754579
2025-10-15 12:46:06.085,1760546766085,1760546766.085,791.7582417582418,792.5641025641025,838.4981684981685,815.1282051282052
2025-10-15 12:46:06.085,1760546766085,1760546766.085,809.0842490842491,795.7875457875458,808.2783882783883,807.0695970695971
2025-10-15 12:46:06.086,1760546766086,1760546766.086,823.1868131868132,793.3699633699634,846.959706959707,808.2783882783883
2025-10-15 12:46:06.086,1760546766086,1760546766.086,803.8461538461539,796.1904761904763,803.4432234432235,795.3846153846154
2025-10-15 12:46:06.086,1760546766086,1760546766.086,813.919413919414,793.7728937728938,855.0183150183151,798.2051282051282
2025-10-15 12:46:06.087,1760546766087,1760546766.087,808.2783882783883,795.7875457875458,805.054945054945,798.6080586080586
2025-10-15 12:46:06.087,1760546766087,1760546766.087,788.9377289377289,798.2051282051282,814.3223443223443,795.7875457875458
2025-10-15 12:46:06.132,1760546766132,1760546766.132,799.4139194139194,796.1904761904763,856.6300366300367,807.0695970695971
2025-10-15 12:46:06.132,1760546766132,1760546766.132,815.934065934066,793.7728937728938,846.959706959707,808.2783882783883
2025-10-15 12:46:06.133,1760546766133,1760546766.133,809.0842490842491,799.8168498168499,841.3186813186813,798.2051282051282
2025-10-15 12:46:06.133,1760546766133,1760546766.133,800.2197802197802,788.5347985347986,797.8021978021978,816.3369963369963
2025-10-15 12:46:06.133,1760546766133,1760546766.133,784.1025641025641,789.7435897435897,810.6959706959707,811.5018315018315
2025-10-15 12:46:06.134,1760546766134,1760546766.134,789.3406593406594,786.1172161172161,817.948717948718,821.978021978022
2025-10-15 12:46:06.134,1760546766134,1760546766.134,812.7106227106227,782.893772893773,796.1904761904763,827.2161172161173
2025-10-15 12:46:06.134,1760546766134,1760546766.134,833.6630036630037,794.1758241758242,821.5750915750916,807.0695970695971
2025-10-15 12:46:06.135,1760546766135,1760546766.135,803.040293040293,796.5934065934066,863.4798534798535,798.6080586080586
2025-10-15 12:46:06.135,1760546766135,1760546766.135,825.6043956043957,794.981684981685,830.0366300366301,804.6520146520147
2025-10-15 12:46:06.135,1760546766135,1760546766.135,827.2161172161173,793.3699633699634,823.5897435897436,819.96336996337
2025-10-15 12:46:06.135,1760546766135,1760546766.135,809.0842490842491,795.3846153846154,850.989010989011,815.934065934066
2025-10-15 12:46:06.177,1760546766177,1760546766.177,803.4432234432235,794.5787545787546,849.3772893772895,800.6227106227107
2025-10-15 12:46:06.178,1760546766178,1760546766.178,818.7545787545788,790.952380952381,819.1575091575091,794.1758241758242
2025-10-15 12:46:06.179,1760546766179,1760546766.179,821.1721611721612,792.967032967033,813.919413919414,793.3699633699634
2025-10-15 12:46:06.179,1760546766179,1760546766.179,808.6813186813187,803.040293040293,836.0805860805862,798.2051282051282
2025-10-15 12:46:06.182,1760546766182,1760546766.182,803.4432234432235,803.4432234432235,817.1428571428571,783.2967032967033
2025-10-15 12:46:06.182,1760546766182,1760546766.182,804.6520146520147,801.8315018315019,823.5897435897436,780.4761904761905
2025-10-15 12:46:06.183,1760546766183,1760546766.183,798.2051282051282,807.4725274725275,795.7875457875458,816.3369963369963
2025-10-15 12:46:06.183,1760546766183,1760546766.183,780.4761904761905,809.0842490842491,819.5604395604396,811.5018315018315
2025-10-15 12:46:06.184,1760546766184,1760546766.184,775.6410256410256,808.2783882783883,849.3772893772895,780.0732600732601
2025-10-15 12:46:06.184,1760546766184,1760546766.184,795.7875457875458,803.4432234432235,815.934065934066,778.8644688644689
2025-10-15 12:46:06.184,1760546766184,1760546766.184,806.6666666666667,807.8754578754579,817.1428571428571,796.996336996337
2025-10-15 12:46:06.185,1760546766185,1760546766.185,790.5494505494506,814.7252747252747,856.2271062271062,793.7728937728938
2025-10-15 12:46:06.229,1760546766229,1760546766.229,777.2527472527473,814.7252747252747,849.7802197802198,774.4322344322345
2025-10-15 12:46:06.230,1760546766230,1760546766.23,834.0659340659341,817.5457875457876,853.4065934065934,805.4578754578755
2025-10-15 12:46:06.230,1760546766230,1760546766.23,766.3736263736264,804.6520146520147,830.8424908424909,772.014652014652
2025-10-15 12:46:06.230,1760546766230,1760546766.23,790.952380952381,808.2783882783883,840.5128205128206,791.3553113553114
2025-10-15 12:46:06.231,1760546766231,1760546766.231,782.4908424908425,803.4432234432235,824.3956043956044,793.7728937728938
2025-10-15 12:46:06.231,1760546766231,1760546766.231,761.941391941392,797.8021978021978,822.7838827838829,784.5054945054945
2025-10-15 12:46:06.231,1760546766231,1760546766.231,803.040293040293,809.8901098901099,843.3333333333334,799.0109890109891
2025-10-15 12:46:06.232,1760546766232,1760546766.232,809.8901098901099,813.5164835164835,850.5860805860806,803.040293040293
2025-10-15 12:46:06.232,1760546766232,1760546766.232,784.5054945054945,814.7252747252747,859.047619047619,791.3553113553114
2025-10-15 12:46:06.232,1760546766232,1760546766.232,756.3003663003664,805.4578754578755,830.4395604395604,778.8644688644689
2025-10-15 12:46:06.233,1760546766233,1760546766.233,770.0,795.3846153846154,847.7655677655678,774.0293040293041
2025-10-15 12:46:06.233,1760546766233,1760546766.233,792.1611721611722,798.6080586080586,877.5824175824176,778.4615384615385
2025-10-15 12:46:06.276,1760546766276,1760546766.276,793.7728937728938,793.7728937728938,844.945054945055,782.4908424908425
2025-10-15 12:46:06.277,1760546766277,1760546766.277,781.2820512820513,791.7582417582418,823.992673992674,776.4468864468864
2025-10-15 12:46:06.277,1760546766277,1760546766.277,785.3113553113553,804.2490842490843,848.5714285714286,773.6263736263736
2025-10-15 12:46:06.277,1760546766277,1760546766.277,790.1465201465202,801.025641025641,851.3919413919414,776.4468864468864
2025-10-15 12:46:06.278,1760546766278,1760546766.278,765.1648351648352,794.981684981685,815.1282051282052,786.1172161172161
2025-10-15 12:46:06.278,1760546766278,1760546766.278,785.3113553113553,793.7728937728938,826.4102564102565,800.2197802197802
2025-10-15 12:46:06.280,1760546766280,1760546766.28,770.8058608058608,796.1904761904763,840.1098901098901,760.7326007326008
2025-10-15 12:46:06.281,1760546766281,1760546766.281,796.5934065934066,794.981684981685,849.3772893772895,790.5494505494506
2025-10-15 12:46:06.281,1760546766281,1760546766.281,798.6080586080586,794.5787545787546,824.3956043956044,795.3846153846154
2025-10-15 12:46:06.281,1760546766281,1760546766.281,781.2820512820513,791.7582417582418,806.2637362637363,793.3699633699634
2025-10-15 12:46:06.282,1760546766282,1760546766.282,769.5970695970697,795.3846153846154,857.032967032967,786.5201465201466
2025-10-15 12:46:06.282,1760546766282,1760546766.282,775.6410256410256,799.4139194139194,858.6446886446887,784.1025641025641
2025-10-15 12:46:06.326,1760546766326,1760546766.326,797.8021978021978,789.3406593406594,840.9157509157509,800.6227106227107
2025-10-15 12:46:06.327,1760546766327,1760546766.327,805.8608058608058,784.5054945054945,836.4835164835165,792.5641025641025
2025-10-15 12:46:06.327,1760546766327,1760546766.327,798.6080586080586,792.1611721611722,833.2600732600733,792.5641025641025
2025-10-15 12:46:06.328,1760546766328,1760546766.328,799.4139194139194,778.4615384615385,807.0695970695971,807.0695970695971
2025-10-15 12:46:06.328,1760546766328,1760546766.328,810.6959706959707,779.6703296703297,812.7106227106227,817.5457875457876
2025-10-15 12:46:06.328,1760546766328,1760546766.328,805.4578754578755,790.1465201465202,839.7069597069598,812.3076923076924
2025-10-15 12:46:06.329,1760546766329,1760546766.329,795.7875457875458,785.7142857142858,834.0659340659341,807.0695970695971
2025-10-15 12:46:06.329,1760546766329,1760546766.329,806.2637362637363,782.0879120879121,839.7069597069598,802.2344322344322
2025-10-15 12:46:06.329,1760546766329,1760546766.329,816.7399267399268,773.6263736263736,799.0109890109891,815.934065934066
2025-10-15 12:46:06.329,1760546766329,1760546766.329,819.96336996337,775.2380952380953,807.8754578754579,827.2161172161173
2025-10-15 12:46:06.330,1760546766330,1760546766.33,804.2490842490843,783.2967032967033,852.6007326007326,805.8608058608058
2025-10-15 12:46:06.330,1760546766330,1760546766.33,819.1575091575091,784.9084249084249,827.6190476190476,808.6813186813187
2025-10-15 12:46:06.351,1760546766351,1760546766.351,840.1098901098901,784.9084249084249,819.96336996337,819.1575091575091
2025-10-15 12:46:06.352,1760546766352,1760546766.352,796.996336996337,789.7435897435897,829.6336996336996,807.8754578754579
2025-10-15 12:46:06.352,1760546766352,1760546766.352,799.8168498168499,785.3113553113553,811.0989010989011,807.8754578754579
2025-10-15 12:46:06.352,1760546766352,1760546766.352,821.1721611721612,788.1318681318681,837.6923076923077,817.1428571428571
2025-10-15 12:46:06.353,1760546766353,1760546766.353,816.7399267399268,787.3260073260074,806.6666666666667,828.021978021978
2025-10-15 12:46:06.353,1760546766353,1760546766.353,818.7545787545788,791.3553113553114,816.3369963369963,830.8424908424909
2025-10-15 12:46:06.353,1760546766353,1760546766.353,832.8571428571429,790.952380952381,813.5164835164835,813.1135531135532
2025-10-15 12:46:06.353,1760546766353,1760546766.353,813.5164835164835,792.1611721611722,805.4578754578755,811.9047619047619
2025-10-15 12:46:06.355,1760546766355,1760546766.355,797.3992673992674,785.3113553113553,778.4615384615385,844.1391941391942
2025-10-15 12:46:06.355,1760546766355,1760546766.355,817.948717948718,788.5347985347986,819.5604395604396,850.5860805860806
2025-10-15 12:46:06.355,1760546766355,1760546766.355,818.7545787545788,790.1465201465202,854.6153846153846,823.1868131868132
2025-10-15 12:46:06.356,1760546766356,1760546766.356,816.3369963369963,784.1025641025641,823.1868131868132,812.3076923076924
2025-10-15 12:46:06.400,1760546766400,1760546766.4,833.2600732600733,789.3406593406594,823.1868131868132,816.3369963369963
2025-10-15 12:46:06.401,1760546766401,1760546766.401,844.1391941391942,791.7582417582418,837.6923076923077,825.2014652014652
2025-10-15 12:46:06.402,1760546766402,1760546766.402,801.8315018315019,782.893772893773,815.1282051282052,817.948717948718
2025-10-15 12:46:06.402,1760546766402,1760546766.402,824.3956043956044,788.1318681318681,830.0366300366301,825.2014652014652
2025-10-15 12:46:06.403,1760546766403,1760546766.403,816.7399267399268,787.3260073260074,819.1575091575091,825.2014652014652
2025-10-15 12:46:06.403,1760546766403,1760546766.403,826.8131868131868,789.3406593406594,806.2637362637363,832.8571428571429
2025-10-15 12:46:06.403,1760546766403,1760546766.403,831.6483516483516,788.9377289377289,816.3369963369963,823.1868131868132
2025-10-15 12:46:06.404,1760546766404,1760546766.404,812.7106227106227,786.1172161172161,794.981684981685,826.4102564102565
2025-10-15 12:46:06.404,1760546766404,1760546766.404,788.9377289377289,785.3113553113553,792.1611721611722,814.7252747252747
2025-10-15 12:46:06.404,1760546766404,1760546766.404,826.8131868131868,795.3846153846154,837.2893772893773,808.6813186813187
2025-10-15 12:46:06.405,1760546766405,1760546766.405,823.992673992674,792.5641025641025,823.992673992674,817.1428571428571
2025-10-15 12:46:06.405,1760546766405,1760546766.405,812.3076923076924,794.1758241758242,826.8131868131868,807.8754578754579
2025-10-15 12:46:06.448,1760546766448,1760546766.448,806.6666666666667,795.3846153846154,843.3333333333334,793.7728937728938
2025-10-15 12:46:06.449,1760546766449,1760546766.449,820.7692307692308,796.5934065934066,819.96336996337,799.8168498168499
2025-10-15 12:46:06.449,1760546766449,1760546766.449,783.2967032967033,786.5201465201466,829.2307692307693,799.0109890109891
2025-10-15 12:46:06.449,1760546766449,1760546766.449,813.5164835164835,793.3699633699634,817.1428571428571,810.2930402930403
2025-10-15 12:46:06.450,1760546766450,1760546766.45,791.7582417582418,791.7582417582418,824.3956043956044,783.6996336996338
2025-10-15 12:46:06.450,1760546766450,1760546766.45,778.0586080586081,790.952380952381,824.3956043956044,772.8205128205128
2025-10-15 12:46:06.450,1760546766450,1760546766.45,786.1172161172161,796.5934065934066,817.948717948718,802.2344322344322
2025-10-15 12:46:06.451,1760546766451,1760546766.451,780.4761904761905,792.1611721611722,787.7289377289378,825.2014652014652
