TimeStamp,unix_ms,lsl_unix_ts,TP9,AF7,AF8,TP10
2025-12-28 21:18:55.607,1766974735607,1766974735.607,751.8681,803.44324,812.3077,781.685
2025-12-28 21:18:55.608,1766974735608,1766974735.608,847.3626,808.2784,815.5311,811.9048
2025-12-28 21:18:55.608,1766974735608,1766974735.608,852.1978,805.4579,815.5311,817.5458
2025-12-28 21:18:55.608,1766974735608,1766974735.608,757.1062,798.20514,812.71063,795.38464
2025-12-28 21:18:55.609,1766974735609,1766974735.609,737.3626,796.99634,814.3223,782.8938
2025-12-28 21:18:55.609,1766974735609,1766974735.609,819.5604,804.65204,819.15753,799.41394
2025-12-28 21:18:55.609,1766974735609,1766974735.609,854.61536,807.0696,820.3663,822.7839
2025-12-28 21:18:55.610,1766974735610,1766974735.61,856.63007,814.3223,815.12823,822.381
2025-12-28 21:18:55.610,1766974735610,1766974735.61,796.99634,813.1135,821.5751,795.78754
2025-12-28 21:18:55.610,1766974735610,1766974735.61,741.79486,803.44324,820.3663,782.49084
2025-12-28 21:18:55.610,1766974735610,1766974735.61,788.5348,798.20514,816.337,808.2784
2025-12-28 21:18:55.611,1766974735611,1766974735.611,810.696,813.5165,814.3223,815.12823
2025-12-28 21:18:55.611,1766974735611,1766974735.611,739.3773,810.293,816.337,784.90845
2025-12-28 21:18:55.611,1766974735611,1766974735.611,770.80585,806.6667,814.7253,790.9524
2025-12-28 21:18:55.612,1766974735612,1766974735.612,854.21246,807.8755,812.3077,816.337
2025-12-28 21:18:55.612,1766974735612,1766974735.612,830.84247,807.47253,811.50183,811.50183
2025-12-28 21:18:55.612,1766974735612,1766974735.612,740.18317,801.8315,809.4872,783.69965
2025-12-28 21:18:55.613,1766974735613,1766974735.613,788.93774,818.3516,811.50183,784.90845
2025-12-28 21:18:55.613,1766974735613,1766974735.613,862.674,819.15753,814.7253,814.3223
2025-12-28 21:18:55.613,1766974735613,1766974735.613,846.9597,814.7253,813.5165,813.1135
2025-12-28 21:18:55.613,1766974735613,1766974735.613,758.71796,806.26373,809.4872,785.31134
2025-12-28 21:18:55.614,1766974735614,1766974735.614,767.98535,818.3516,809.4872,772.8205
2025-12-28 21:18:55.614,1766974735614,1766974735.614,849.7802,827.2161,810.293,798.20514
2025-12-28 21:18:55.614,1766974735614,1766974735.614,892.0879,828.022,812.71063,826.8132
2025-12-28 21:18:55.641,1766974735641,1766974735.641,814.3223,817.1429,817.1429,827.2161
2025-12-28 21:18:55.641,1766974735641,1766974735.641,739.7802,808.68134,819.15753,814.3223
2025-12-28 21:18:55.642,1766974735642,1766974735.642,807.0696,804.2491,815.9341,835.2747
2025-12-28 21:18:55.642,1766974735642,1766974735.642,726.8865,796.5934,809.0842,793.7729
2025-12-28 21:18:55.642,1766974735642,1766974735.642,778.86444,808.68134,821.1722,830.0366
2025-12-28 21:18:55.642,1766974735642,1766974735.642,841.7216,810.293,822.381,855.82416
2025-12-28 21:18:55.643,1766974735643,1766974735.643,749.85345,800.2198,806.26373,785.7143
2025-12-28 21:18:55.643,1766974735643,1766974735.643,851.39197,813.91943,810.293,811.9048
2025-12-28 21:18:55.643,1766974735643,1766974735.643,846.1539,814.7253,810.293,816.337
2025-12-28 21:18:55.644,1766974735644,1766974735.644,749.85345,803.8461,803.44324,789.34064
2025-12-28 21:18:55.644,1766974735644,1766974735.644,742.6007,803.44324,802.23444,782.8938
2025-12-28 21:18:55.644,1766974735644,1766974735.644,829.2308,809.89014,800.2198,793.36993
2025-12-28 21:18:55.695,1766974735695,1766974735.695,767.98535,799.41394,795.38464,785.7143
2025-12-28 21:18:55.695,1766974735695,1766974735.695,851.39197,807.0696,795.78754,804.65204
2025-12-28 21:18:55.696,1766974735696,1766974735.696,863.0769,805.05493,798.20514,813.5165
2025-12-28 21:18:55.696,1766974735696,1766974735.696,731.31866,799.81683,794.17584,764.35895
2025-12-28 21:18:55.696,1766974735696,1766974735.696,813.91943,805.05493,796.1905,789.7436
2025-12-28 21:18:55.697,1766974735697,1766974735.697,794.17584,796.5934,794.17584,802.23444
2025-12-28 21:18:55.697,1766974735697,1766974735.697,720.4396,795.38464,794.9817,777.6557
2025-12-28 21:18:55.697,1766974735697,1766974735.697,766.77655,800.6227,798.60803,776.04395
2025-12-28 21:18:55.698,1766974735698,1766974735.698,857.4359,804.2491,801.8315,807.0696
2025-12-28 21:18:55.698,1766974735698,1766974735.698,815.9341,796.5934,800.6227,805.8608
2025-12-28 21:18:55.698,1766974735698,1766974735.698,724.0659,789.7436,797.3993,774.43225
2025-12-28 21:18:55.699,1766974735699,1766974735.699,749.85345,796.5934,800.2198,773.22345
2025-12-28 21:18:55.731,1766974735731,1766974735.731,840.5128,796.1905,796.99634,801.02563
2025-12-28 21:18:55.731,1766974735731,1766974735.731,840.9158,800.6227,801.02563,796.99634
2025-12-28 21:18:55.733,1766974735733,1766974735.733,751.06226,786.9231,794.17584,773.22345
2025-12-28 21:18:55.734,1766974735734,1766974735.734,736.55676,787.72894,796.99634,764.35895
2025-12-28 21:18:55.734,1766974735734,1766974735.734,813.91943,797.3993,798.60803,791.75824
2025-12-28 21:18:55.734,1766974735734,1766974735.734,846.1539,801.8315,797.3993,810.696
2025-12-28 21:18:55.734,1766974735734,1766974735.734,774.43225,796.5934,792.5641,789.34064
2025-12-28 21:18:55.735,1766974735735,1766974735.735,791.75824,793.7729,794.57874,785.7143
2025-12-28 21:18:55.735,1766974735735,1766974735.735,856.2271,796.1905,794.9817,811.9048
2025-12-28 21:18:55.735,1766974735735,1766974735.735,727.28937,790.54944,792.1612,765.9707
2025-12-28 21:18:55.735,1766974735735,1766974735.735,806.6667,792.1612,794.17584,798.20514
2025-12-28 21:18:55.736,1766974735736,1766974735.736,731.7216,791.3553,799.81683,773.6264
2025-12-28 21:18:55.764,1766974735764,1766974735.764,767.98535,794.57874,805.4579,790.14655
2025-12-28 21:18:55.765,1766974735765,1766974735.765,857.03296,800.6227,805.4579,820.7692
2025-12-28 21:18:55.765,1766974735765,1766974735.765,832.4542,798.20514,803.0403,807.0696
2025-12-28 21:18:55.766,1766974735766,1766974735.766,730.10986,789.34064,799.011,772.4176
2025-12-28 21:18:55.766,1766974735766,1766974735.766,739.3773,789.7436,799.011,770.80585
2025-12-28 21:18:55.766,1766974735766,1766974735.766,834.87177,797.3993,801.02563,798.20514
2025-12-28 21:18:55.767,1766974735767,1766974735.767,844.5421,800.2198,801.4286,809.4872
2025-12-28 21:18:55.767,1766974735767,1766974735.767,764.7619,799.41394,799.81683,788.1319
2025-12-28 21:18:55.767,1766974735767,1766974735.767,745.42126,802.23444,799.41394,787.326
2025-12-28 21:18:55.768,1766974735768,1766974735.768,828.4249,814.3223,805.05493,811.9048
2025-12-28 21:18:55.768,1766974735768,1766974735.768,865.09155,817.9487,805.05493,825.6044
2025-12-28 21:18:55.769,1766974735769,1766974735.769,796.99634,813.1135,806.26373,809.4872
2025-12-28 21:18:55.822,1766974735822,1766974735.822,751.4652,811.0989,808.2784,788.93774
2025-12-28 21:18:55.823,1766974735823,1766974735.823,809.4872,813.1135,808.2784,805.05493
2025-12-28 21:18:55.824,1766974735824,1766974735.824,875.56775,816.7399,809.0842,825.6044
2025-12-28 21:18:55.824,1766974735824,1766974735.824,821.5751,809.4872,803.44324,814.3223
2025-12-28 21:18:55.827,1766974735827,1766974735.827,768.3883,802.23444,803.44324,783.2967
2025-12-28 21:18:55.827,1766974735827,1766974735.827,731.31866,800.6227,800.6227,780.87915
2025-12-28 21:18:55.827,1766974735827,1766974735.827,855.42126,807.0696,804.2491,812.3077
2025-12-28 21:18:55.828,1766974735828,1766974735.828,734.94507,792.1612,799.41394,785.7143
2025-12-28 21:18:55.828,1766974735828,1766974735.828,830.84247,799.81683,801.4286,812.71063
2025-12-28 21:18:55.829,1766974735829,1766974735.829,736.55676,796.99634,802.23444,773.6264
2025-12-28 21:18:55.829,1766974735829,1766974735.829,830.0366,801.8315,803.8461,793.36993
2025-12-28 21:18:55.829,1766974735829,1766974735.829,845.7509,803.0403,803.44324,807.0696
2025-12-28 21:18:55.869,1766974735869,1766974735.869,752.674,801.8315,807.0696,788.93774
2025-12-28 21:18:55.870,1766974735870,1766974735.87,731.7216,801.4286,810.293,772.8205
2025-12-28 21:18:55.870,1766974735870,1766974735.87,812.3077,804.65204,812.3077,792.96704
2025-12-28 21:18:55.871,1766974735871,1766974735.871,736.1539,797.3993,814.3223,772.8205
2025-12-28 21:18:55.871,1766974735871,1766974735.871,793.7729,803.8461,813.91943,799.011
2025-12-28 21:18:55.871,1766974735871,1766974735.871,855.82416,808.68134,813.5165,814.7253
2025-12-28 21:18:55.872,1766974735872,1766974735.872,788.1319,803.0403,817.5458,788.1319
2025-12-28 21:18:55.872,1766974735872,1766974735.872,857.8388,809.4872,815.9341,824.7985
2025-12-28 21:18:55.873,1766974735873,1766974735.873,809.89014,802.6374,810.293,810.293
2025-12-28 21:18:55.873,1766974735873,1766974735.873,725.2747,792.5641,807.0696,774.83514
2025-12-28 21:18:55.874,1766974735874,1766974735.874,755.09155,796.1905,807.0696,780.07324
2025-12-28 21:18:55.874,1766974735874,1766974735.874,845.7509,805.8608,809.89014,807.47253
2025-12-28 21:18:55.914,1766974735914,1766974735.914,839.707,807.47253,812.3077,815.12823
2025-12-28 21:18:55.915,1766974735915,1766974735.915,747.8388,811.50183,813.91943,784.90845
2025-12-28 21:18:55.915,1766974735915,1766974735.915,837.28937,817.9487,815.5311,803.8461
2025-12-28 21:18:55.915,1766974735915,1766974735.915,751.8681,807.47253,813.91943,793.36993
2025-12-28 21:18:55.916,1766974735916,1766974735.916,859.85345,818.3516,811.9048,813.91943
2025-12-28 21:18:55.916,1766974735916,1766974735.916,778.0586,811.50183,807.47253,788.93774
2025-12-28 21:18:55.917,1766974735917,1766974735.917,741.79486,807.0696,807.8755,775.2381
2025-12-28 21:18:55.918,1766974735918,1766974735.918,810.293,811.0989,809.89014,795.38464
2025-12-28 21:18:55.918,1766974735918,1766974735.918,863.8828,813.5165,809.89014,817.5458
2025-12-28 21:18:55.918,1766974735918,1766974735.918,805.8608,805.8608,807.8755,807.47253
2025-12-28 21:18:55.918,1766974735918,1766974735.918,735.34796,799.81683,805.8608,781.28204
2025-12-28 21:18:55.919,1766974735919,1766974735.919,775.64105,805.05493,803.44324,786.9231
2025-12-28 21:18:55.978,1766974735978,1766974735.978,855.82416,812.3077,803.8461,815.5311
2025-12-28 21:18:55.979,1766974735979,1766974735.979,822.7839,805.8608,801.8315,812.3077
2025-12-28 21:18:55.980,1766974735980,1766974735.98,733.3333,797.8022,800.6227,776.4469
2025-12-28 21:18:55.980,1766974735980,1766974735.98,754.68866,803.8461,803.0403,775.64105
2025-12-28 21:18:55.981,1766974735981,1766974735.981,841.7216,809.4872,802.6374,805.4579
2025-12-28 21:18:55.981,1766974735981,1766974735.981,839.707,809.4872,803.0403,809.0842
2025-12-28 21:18:55.982,1766974735982,1766974735.982,759.12085,805.4579,805.4579,790.54944
2025-12-28 21:18:55.982,1766974735982,1766974735.982,748.24176,808.68134,809.4872,784.90845
2025-12-28 21:18:55.983,1766974735983,1766974735.983,826.8132,813.91943,811.9048,803.8461
2025-12-28 21:18:55.983,1766974735983,1766974735.983,859.85345,809.89014,812.71063,815.5311
2025-12-28 21:18:55.984,1766974735984,1766974735.984,780.87915,799.011,809.0842,792.5641
2025-12-28 21:18:55.984,1766974735984,1766974735.984,728.0952,794.9817,806.26373,772.01465
2025-12-28 21:18:56.010,1766974736010,1766974736.01,788.5348,803.0403,806.6667,786.1172
2025-12-28 21:18:56.011,1766974736011,1766974736.011,843.73627,805.05493,807.0696,803.0403
2025-12-28 21:18:56.011,1766974736011,1766974736.011,790.9524,797.3993,804.65204,790.14655
2025-12-28 21:18:56.012,1766974736012,1766974736.012,712.7839,792.96704,801.8315,761.9414
2025-12-28 21:18:56.012,1766974736012,1766974736.012,751.8681,797.3993,800.2198,764.35895
2025-12-28 21:18:56.012,1766974736012,1766974736.012,837.28937,804.2491,800.6227,796.1905
2025-12-28 21:18:56.013,1766974736013,1766974736.013,805.05493,802.23444,796.5934,796.5934
2025-12-28 21:18:56.013,1766974736013,1766974736.013,713.9927,793.7729,793.7729,765.56775
2025-12-28 21:18:56.015,1766974736015,1766974736.015,741.79486,797.8022,803.8461,777.6557
2025-12-28 21:18:56.016,1766974736016,1766974736.016,836.8865,812.71063,800.2198,815.9341
2025-12-28 21:18:56.016,1766974736016,1766974736.016,846.55676,809.0842,805.8608,818.7546
2025-12-28 21:18:56.017,1766974736017,1766974736.017,740.18317,803.44324,797.8022,769.59705
2025-12-28 21:18:56.057,1766974736057,1766974736.057,713.1868,792.96704,796.99634,748.24176
2025-12-28 21:18:56.058,1766974736058,1766974736.058,736.55676,794.17584,791.3553,752.27106
2025-12-28 21:18:56.058,1766974736058,1766974736.058,727.6923,790.14655,785.31134,744.21246
2025-12-28 21:18:56.059,1766974736059,1766974736.059,699.89014,794.57874,784.90845,705.12823
2025-12-28 21:18:56.059,1766974736059,1766974736.059,719.6337,791.3553,784.10254,734.1392
2025-12-28 21:18:56.059,1766974736059,1766974736.059,720.84247,800.6227,784.90845,726.8865
2025-12-28 21:18:56.059,1766974736059,1766974736.059,714.7985,800.2198,787.326,720.84247
2025-12-28 21:18:56.060,1766974736060,1766974736.06,671.28204,794.57874,774.43225,670.4762
2025-12-28 21:18:56.060,1766974736060,1766974736.06,686.5934,792.96704,777.6557,691.8315
2025-12-28 21:18:56.060,1766974736060,1766974736.06,678.1319,793.36993,774.43225,678.5348
2025-12-28 21:18:56.061,1766974736061,1766974736.061,658.7912,799.41394,775.64105,664.83514
2025-12-28 21:18:56.061,1766974736061,1766974736.061,657.1795,803.44324,774.83514,653.1502
2025-12-28 21:18:56.089,1766974736089,1766974736.089,660.80585,803.8461,772.01465,649.12085
2025-12-28 21:18:56.090,1766974736090,1766974736.09,653.95605,801.4286,771.2088,650.32965
2025-12-28 21:18:56.090,1766974736090,1766974736.09,652.74725,807.0696,773.6264,643.47986
2025-12-28 21:18:56.091,1766974736091,1766974736.091,646.7033,809.89014,770.0,635.0183
2025-12-28 21:18:56.091,1766974736091,1766974736.091,639.45056,804.2491,765.9707,632.6007
2025-12-28 21:18:56.092,1766974736092,1766974736.092,645.4945,806.26373,765.16486,631.79486
2025-12-28 21:18:56.092,1766974736092,1766974736.092,639.0476,802.23444,763.95605,625.7509
2025-12-28 21:18:56.092,1766974736092,1766974736.092,633.00366,799.81683,760.32965,626.9597
2025-12-28 21:18:56.093,1766974736093,1766974736.093,638.24176,803.0403,760.32965,638.24176
2025-12-28 21:18:56.093,1766974736093,1766974736.093,640.2564,808.2784,761.53845,642.674
2025-12-28 21:18:56.095,1766974736095,1766974736.095,645.4945,809.89014,769.59705,634.21246
2025-12-28 21:18:56.095,1766974736095,1766974736.095,653.95605,801.8315,778.0586,627.3626
2025-12-28 21:18:56.141,1766974736141,1766974736.141,664.43225,805.4579,749.85345,642.27106
2025-12-28 21:18:56.141,1766974736141,1766974736.141,661.2088,802.6374,754.68866,634.61536
2025-12-28 21:18:56.142,1766974736142,1766974736.142,656.3736,815.12823,765.9707,650.32965
2025-12-28 21:18:56.142,1766974736142,1766974736.142,659.19415,819.5604,761.13556,655.56775
2025-12-28 21:18:56.142,1766974736142,1766974736.142,663.22345,808.2784,766.3736,645.89746
2025-12-28 21:18:56.143,1766974736143,1766974736.143,669.2674,812.3077,762.74725,653.5531
2025-12-28 21:18:56.143,1766974736143,1766974736.143,671.28204,786.9231,773.6264,657.1795
2025-12-28 21:18:56.143,1766974736143,1766974736.143,668.86444,817.9487,759.5238,659.19415
2025-12-28 21:18:56.144,1766974736144,1766974736.144,676.1172,786.1172,776.4469,672.0879
2025-12-28 21:18:56.144,1766974736144,1766974736.144,689.81683,813.5165,768.3883,685.38464
2025-12-28 21:18:56.145,1766974736145,1766974736.145,705.12823,826.8132,771.6117,699.0842
2025-12-28 21:18:56.145,1766974736145,1766974736.145,707.9487,830.0366,774.83514,707.9487
2025-12-28 21:18:56.199,1766974736199,1766974736.199,707.5458,819.5604,772.01465,705.12823
2025-12-28 21:18:56.200,1766974736200,1766974736.2,703.1135,813.91943,759.92676,701.9048
2025-12-28 21:18:56.200,1766974736200,1766974736.2,700.696,815.12823,753.8828,705.5311
2025-12-28 21:18:56.201,1766974736201,1766974736.201,721.2454,813.5165,747.8388,720.84247
2025-12-28 21:18:56.201,1766974736201,1766974736.201,723.2601,821.5751,749.85345,719.6337
2025-12-28 21:18:56.201,1766974736201,1766974736.201,716.4103,818.3516,759.12085,716.4103
2025-12-28 21:18:56.202,1766974736202,1766974736.202,737.76556,813.1135,757.50916,736.55676
2025-12-28 21:18:56.202,1766974736202,1766974736.202,757.9121,816.7399,756.7033,750.65936
2025-12-28 21:18:56.202,1766974736202,1766974736.202,765.56775,821.978,750.65936,759.5238
2025-12-28 21:18:56.203,1766974736203,1766974736.203,771.6117,826.8132,754.2857,759.92676
2025-12-28 21:18:56.203,1766974736203,1766974736.203,776.04395,819.5604,751.4652,761.13556
2025-12-28 21:18:56.203,1766974736203,1766974736.203,788.5348,814.3223,747.03296,775.2381
2025-12-28 21:18:56.229,1766974736229,1766974736.229,799.81683,824.3956,750.65936,786.52014
2025-12-28 21:18:56.230,1766974736230,1766974736.23,832.0513,821.978,753.8828,781.28204
2025-12-28 21:18:56.230,1766974736230,1766974736.23,813.91943,825.6044,755.89746,774.43225
2025-12-28 21:18:56.230,1766974736230,1766974736.23,801.02563,829.6337,754.68866,780.87915
2025-12-28 21:18:56.231,1766974736231,1766974736.231,842.52747,823.9927,751.4652,791.3553
2025-12-28 21:18:56.231,1766974736231,1766974736.231,844.1392,833.2601,753.8828,807.47253
2025-12-28 21:18:56.231,1766974736231,1766974736.231,839.304,828.8278,759.5238,833.663
2025-12-28 21:18:56.232,1766974736232,1766974736.232,835.6777,824.7985,761.9414,856.63007
2025-12-28 21:18:56.232,1766974736232,1766974736.232,830.4396,828.8278,763.5531,864.68866
2025-12-28 21:18:56.232,1766974736232,1766974736.232,823.5897,821.1722,763.1502,860.2564
2025-12-28 21:18:56.233,1766974736233,1766974736.233,838.0952,822.381,766.3736,865.09155
2025-12-28 21:18:56.233,1766974736233,1766974736.233,856.63007,829.2308,772.01465,872.74725
2025-12-28 21:18:56.296,1766974736296,1766974736.296,863.47986,829.2308,765.9707,871.53845
2025-12-28 21:18:56.297,1766974736297,1766974736.297,873.5531,828.8278,759.12085,869.5238
2025-12-28 21:18:56.297,1766974736297,1766974736.297,882.4176,829.6337,764.35895,873.5531
2025-12-28 21:18:56.298,1766974736298,1766974736.298,888.0586,828.8278,763.5531,873.95605
2025-12-28 21:18:56.298,1766974736298,1766974736.298,893.2967,826.0073,766.3736,878.3883
2025-12-28 21:18:56.299,1766974736299,1766974736.299,893.2967,821.1722,772.8205,882.8205
2025-12-28 21:18:56.299,1766974736299,1766974736.299,888.86444,812.71063,770.0,884.43225
2025-12-28 21:18:56.300,1766974736300,1766974736.3,892.49084,817.9487,768.3883,894.90845
2025-12-28 21:18:56.300,1766974736300,1766974736.3,897.72894,826.4103,765.16486,891.28204
2025-12-28 21:18:56.301,1766974736301,1766974736.301,884.43225,823.5897,761.53845,882.8205
2025-12-28 21:18:56.301,1766974736301,1766974736.301,882.4176,817.1429,761.9414,877.1795
2025-12-28 21:18:56.301,1766974736301,1766974736.301,892.49084,825.6044,762.3443,882.8205
2025-12-28 21:18:56.331,1766974736331,1766974736.331,885.64105,815.12823,765.56775,868.71796
2025-12-28 21:18:56.332,1766974736332,1766974736.332,887.25275,816.7399,765.56775,863.47986
2025-12-28 21:18:56.334,1766974736334,1766974736.334,882.8205,814.3223,764.35895,861.8681
2025-12-28 21:18:56.335,1766974736335,1766974736.335,881.2088,814.7253,766.77655,864.2857
2025-12-28 21:18:56.335,1766974736335,1766974736.335,882.4176,815.5311,765.16486,862.27106
2025-12-28 21:18:56.335,1766974736335,1766974736.335,893.69965,813.5165,763.95605,863.0769
2025-12-28 21:18:56.335,1766974736335,1766974736.335,884.43225,811.50183,767.1795,870.32965
2025-12-28 21:18:56.336,1766974736336,1766974736.336,885.2381,818.3516,787.326,868.71796
2025-12-28 21:18:56.336,1766974736336,1766974736.336,897.326,819.9634,784.10254,873.5531
2025-12-28 21:18:56.336,1766974736336,1766974736.336,869.5238,813.1135,772.4176,875.9707
2025-12-28 21:18:56.336,1766974736336,1766974736.336,884.43225,815.9341,778.0586,876.77655
2025-12-28 21:18:56.337,1766974736337,1766974736.337,865.09155,815.12823,787.72894,863.0769
2025-12-28 21:18:56.409,1766974736409,1766974736.409,864.2857,816.337,788.1319,863.47986
2025-12-28 21:18:56.410,1766974736410,1766974736.41,857.8388,814.7253,785.7143,860.65936
2025-12-28 21:18:56.410,1766974736410,1766974736.41,851.39197,812.71063,785.31134,848.97437
2025-12-28 21:18:56.411,1766974736411,1766974736.411,858.6447,817.5458,785.31134,843.73627
2025-12-28 21:18:56.411,1766974736411,1766974736.411,865.09155,821.1722,787.326,843.3333
2025-12-28 21:18:56.412,1766974736412,1766974736.412,867.50916,812.3077,786.52014,843.73627
2025-12-28 21:18:56.412,1766974736412,1766974736.412,867.9121,817.5458,788.1319,844.1392
2025-12-28 21:18:56.413,1766974736413,1766974736.413,863.47986,811.9048,782.8938,842.52747
2025-12-28 21:18:56.413,1766974736413,1766974736.413,857.8388,807.8755,784.5055,845.7509
2025-12-28 21:18:56.413,1766974736413,1766974736.413,866.7033,805.8608,787.326,855.0183
2025-12-28 21:18:56.414,1766974736414,1766974736.414,869.5238,812.71063,788.93774,864.68866
2025-12-28 21:18:56.414,1766974736414,1766974736.414,861.8681,813.1135,794.9817,853.4066
2025-12-28 21:18:56.463,1766974736463,1766974736.463,867.9121,813.91943,796.99634,844.5421
2025-12-28 21:18:56.464,1766974736464,1766974736.464,871.53845,817.1429,793.7729,846.55676
2025-12-28 21:18:56.465,1766974736465,1766974736.465,867.9121,818.7546,791.75824,845.7509
2025-12-28 21:18:56.465,1766974736465,1766974736.465,864.68866,820.3663,792.96704,840.10986
2025-12-28 21:18:56.467,1766974736467,1766974736.467,853.8095,814.3223,794.9817,834.87177
2025-12-28 21:18:56.467,1766974736467,1766974736.467,843.3333,809.0842,788.1319,830.4396
2025-12-28 21:18:56.467,1766974736467,1766974736.467,843.73627,807.47253,782.0879,828.022
2025-12-28 21:18:56.467,1766974736467,1766974736.467,843.3333,809.89014,786.52014,831.6484
2025-12-28 21:18:56.468,1766974736468,1766974736.468,842.9304,806.26373,788.5348,832.8571
2025-12-28 21:18:56.468,1766974736468,1766974736.468,840.5128,805.4579,785.31134,827.619
2025-12-28 21:18:56.468,1766974736468,1766974736.468,841.31866,809.89014,791.3553,830.4396
2025-12-28 21:18:56.469,1766974736469,1766974736.469,842.9304,805.4579,787.72894,822.381
2025-12-28 21:18:56.495,1766974736495,1766974736.495,834.0659,805.8608,789.34064,824.7985
2025-12-28 21:18:56.495,1766974736495,1766974736.495,841.7216,803.0403,787.326,822.7839
2025-12-28 21:18:56.496,1766974736496,1766974736.496,828.022,806.26373,788.1319,812.71063
2025-12-28 21:18:56.496,1766974736496,1766974736.496,835.2747,807.8755,781.685,823.9927
2025-12-28 21:18:56.496,1766974736496,1766974736.496,845.7509,808.2784,777.25275,824.7985
2025-12-28 21:18:56.497,1766974736497,1766974736.497,810.293,798.60803,791.75824,805.4579
2025-12-28 21:18:56.497,1766974736497,1766974736.497,817.9487,793.7729,791.3553,815.12823
2025-12-28 21:18:56.497,1766974736497,1766974736.497,815.9341,797.3993,792.1612,812.3077
2025-12-28 21:18:56.497,1766974736497,1766974736.497,801.02563,789.7436,793.36993,807.0696
2025-12-28 21:18:56.498,1766974736498,1766974736.498,800.2198,779.2674,795.78754,811.50183
2025-12-28 21:18:56.498,1766974736498,1766974736.498,799.011,782.49084,801.8315,806.26373
2025-12-28 21:18:56.498,1766974736498,1766974736.498,800.6227,785.31134,799.81683,797.3993
2025-12-28 21:18:56.526,1766974736526,1766974736.526,797.8022,784.10254,793.7729,794.17584
2025-12-28 21:18:56.527,1766974736527,1766974736.527,783.69965,778.46155,795.78754,787.326
2025-12-28 21:18:56.527,1766974736527,1766974736.527,785.31134,776.4469,799.011,790.54944
2025-12-28 21:18:56.528,1766974736528,1766974736.528,794.17584,778.86444,799.41394,797.8022
2025-12-28 21:18:56.528,1766974736528,1766974736.528,793.36993,780.4762,801.8315,795.38464
2025-12-28 21:18:56.529,1766974736529,1766974736.529,792.5641,786.1172,807.0696,799.011
2025-12-28 21:18:56.530,1766974736530,1766974736.53,794.9817,789.34064,805.05493,801.8315
2025-12-28 21:18:56.531,1766974736531,1766974736.531,799.011,788.5348,798.60803,807.0696
2025-12-28 21:18:56.531,1766974736531,1766974736.531,799.011,788.1319,799.81683,801.8315
2025-12-28 21:18:56.531,1766974736531,1766974736.531,800.2198,785.7143,805.4579,804.2491
2025-12-28 21:18:56.531,1766974736531,1766974736.531,800.6227,785.31134,801.02563,810.293
2025-12-28 21:18:56.532,1766974736532,1766974736.532,797.8022,787.72894,794.9817,801.4286
2025-12-28 21:18:56.556,1766974736556,1766974736.556,798.60803,788.5348,793.36993,805.8608
2025-12-28 21:18:56.556,1766974736556,1766974736.556,796.99634,789.7436,797.3993,806.26373
2025-12-28 21:18:56.556,1766974736556,1766974736.556,794.57874,794.57874,807.47253,805.4579
2025-12-28 21:18:56.557,1766974736557,1766974736.557,800.2198,796.1905,810.696,811.50183
2025-12-28 21:18:56.557,1766974736557,1766974736.557,807.47253,801.8315,815.9341,818.3516
2025-12-28 21:18:56.557,1766974736557,1766974736.557,807.47253,805.8608,820.3663,816.7399
2025-12-28 21:18:56.557,1766974736557,1766974736.557,804.2491,801.8315,810.696,808.2784
2025-12-28 21:18:56.558,1766974736558,1766974736.558,799.011,794.17584,801.8315,794.57874
2025-12-28 21:18:56.558,1766974736558,1766974736.558,807.8755,793.7729,802.6374,808.2784
2025-12-28 21:18:56.558,1766974736558,1766974736.558,802.23444,798.20514,809.0842,807.8755
2025-12-28 21:18:56.558,1766974736558,1766974736.558,807.8755,799.011,806.6667,818.3516
2025-12-28 21:18:56.559,1766974736559,1766974736.559,799.81683,798.20514,785.31134,803.0403
2025-12-28 21:18:56.617,1766974736617,1766974736.617,799.81683,799.81683,786.1172,806.26373
2025-12-28 21:18:56.617,1766974736617,1766974736.617,797.8022,799.81683,804.2491,805.4579
2025-12-28 21:18:56.618,1766974736618,1766974736.618,791.3553,797.8022,801.4286,806.26373
2025-12-28 21:18:56.618,1766974736618,1766974736.618,798.20514,798.20514,802.23444,803.8461
2025-12-28 21:18:56.618,1766974736618,1766974736.618,794.57874,801.4286,790.14655,803.44324
2025-12-28 21:18:56.618,1766974736618,1766974736.618,796.1905,801.4286,815.12823,805.4579
2025-12-28 21:18:56.619,1766974736619,1766974736.619,803.44324,809.4872,816.337,812.3077
2025-12-28 21:18:56.619,1766974736619,1766974736.619,799.81683,805.05493,812.3077,805.05493
2025-12-28 21:18:56.620,1766974736620,1766974736.62,805.8608,817.1429,811.9048,811.0989
2025-12-28 21:18:56.621,1766974736621,1766974736.621,805.8608,802.23444,791.75824,803.0403
2025-12-28 21:18:56.621,1766974736621,1766974736.621,806.26373,811.50183,801.4286,803.0403
2025-12-28 21:18:56.621,1766974736621,1766974736.621,806.26373,824.3956,816.7399,808.2784
2025-12-28 21:18:56.691,1766974736691,1766974736.691,805.4579,819.15753,813.5165,811.0989
2025-12-28 21:18:56.691,1766974736691,1766974736.691,805.05493,802.6374,808.2784,805.8608
2025-12-28 21:18:56.692,1766974736692,1766974736.692,801.4286,804.65204,806.26373,801.8315
2025-12-28 21:18:56.692,1766974736692,1766974736.692,803.44324,800.6227,802.6374,802.23444
2025-12-28 21:18:56.693,1766974736693,1766974736.693,804.65204,802.6374,811.50183,802.23444
2025-12-28 21:18:56.693,1766974736693,1766974736.693,813.5165,802.6374,801.02563,803.8461
2025-12-28 21:18:56.693,1766974736693,1766974736.693,819.9634,801.8315,791.75824,812.71063
2025-12-28 21:18:56.694,1766974736694,1766974736.694,817.1429,803.44324,794.57874,814.7253
2025-12-28 21:18:56.694,1766974736694,1766974736.694,813.91943,814.3223,815.12823,809.4872
2025-12-28 21:18:56.694,1766974736694,1766974736.694,817.1429,813.1135,829.2308,809.4872
2025-12-28 21:18:56.695,1766974736695,1766974736.695,811.9048,803.8461,811.50183,803.0403
2025-12-28 21:18:56.695,1766974736695,1766974736.695,814.7253,815.12823,802.6374,797.8022
2025-12-28 21:18:56.728,1766974736728,1766974736.728,823.5897,817.5458,810.293,808.2784
2025-12-28 21:18:56.728,1766974736728,1766974736.728,823.1868,823.9927,812.3077,806.26373
2025-12-28 21:18:56.729,1766974736729,1766974736.729,817.5458,812.3077,797.8022,805.05493
2025-12-28 21:18:56.729,1766974736729,1766974736.729,808.68134,810.293,799.011,800.2198
2025-12-28 21:18:56.730,1766974736730,1766974736.73,799.011,801.8315,801.8315,790.9524
2025-12-28 21:18:56.730,1766974736730,1766974736.73,798.60803,797.8022,797.8022,792.5641
2025-12-28 21:18:56.730,1766974736730,1766974736.73,804.65204,804.2491,794.9817,803.0403
2025-12-28 21:18:56.730,1766974736730,1766974736.73,804.2491,808.68134,796.1905,799.81683
2025-12-28 21:18:56.731,1766974736731,1766974736.731,800.6227,805.8608,800.2198,789.34064
2025-12-28 21:18:56.731,1766974736731,1766974736.731,796.5934,805.8608,803.8461,788.5348
2025-12-28 21:18:56.733,1766974736733,1766974736.733,790.54944,798.20514,802.6374,793.7729
2025-12-28 21:18:56.733,1766974736733,1766974736.733,799.41394,800.2198,805.05493,799.011
2025-12-28 21:18:56.771,1766974736771,1766974736.771,792.1612,797.8022,807.47253,793.36993
2025-12-28 21:18:56.771,1766974736771,1766974736.771,798.60803,812.3077,809.4872,794.17584
2025-12-28 21:18:56.771,1766974736771,1766974736.771,788.1319,792.5641,807.47253,791.3553
2025-12-28 21:18:56.772,1766974736772,1766974736.772,792.96704,802.6374,788.93774,789.34064
2025-12-28 21:18:56.772,1766974736772,1766974736.772,797.3993,803.8461,803.0403,799.41394
2025-12-28 21:18:56.772,1766974736772,1766974736.772,797.8022,809.0842,809.0842,794.17584
2025-12-28 21:18:56.772,1766974736772,1766974736.772,791.3553,803.44324,798.20514,792.1612
2025-12-28 21:18:56.773,1766974736773,1766974736.773,793.36993,796.99634,805.05493,797.3993
2025-12-28 21:18:56.773,1766974736773,1766974736.773,786.1172,802.23444,806.6667,794.17584
2025-12-28 21:18:56.773,1766974736773,1766974736.773,796.99634,808.68134,815.12823,801.4286
2025-12-28 21:18:56.773,1766974736773,1766974736.773,801.02563,803.44324,811.0989,796.1905
2025-12-28 21:18:56.774,1766974736774,1766974736.774,795.38464,807.8755,805.4579,788.5348
2025-12-28 21:18:56.800,1766974736800,1766974736.8,788.93774,791.3553,797.3993,789.34064
2025-12-28 21:18:56.800,1766974736800,1766974736.8,800.2198,801.4286,796.99634,790.14655
2025-12-28 21:18:56.801,1766974736801,1766974736.801,797.8022,800.6227,790.9524,806.6667
2025-12-28 21:18:56.801,1766974736801,1766974736.801,790.9524,793.7729,798.20514,800.6227
2025-12-28 21:18:56.801,1766974736801,1766974736.801,782.8938,790.9524,805.4579,789.34064
2025-12-28 21:18:56.801,1766974736801,1766974736.801,792.96704,795.38464,800.2198,799.41394
2025-12-28 21:18:56.802,1766974736802,1766974736.802,789.7436,794.57874,807.0696,796.5934
2025-12-28 21:18:56.802,1766974736802,1766974736.802,792.5641,804.2491,807.0696,796.99634
2025-12-28 21:18:56.802,1766974736802,1766974736.802,795.38464,802.6374,794.17584,792.5641
2025-12-28 21:18:56.802,1766974736802,1766974736.802,801.4286,804.65204,786.52014,802.23444
2025-12-28 21:18:56.803,1766974736803,1766974736.803,793.7729,811.9048,809.0842,807.0696
2025-12-28 21:18:56.803,1766974736803,1766974736.803,790.54944,809.4872,821.5751,801.02563
2025-12-28 21:18:56.868,1766974736868,1766974736.868,797.8022,804.2491,816.7399,804.2491
2025-12-28 21:18:56.869,1766974736869,1766974736.869,799.011,793.36993,812.3077,804.2491
2025-12-28 21:18:56.869,1766974736869,1766974736.869,797.3993,791.75824,804.2491,802.6374
2025-12-28 21:18:56.870,1766974736870,1766974736.87,808.68134,809.0842,803.44324,803.0403
2025-12-28 21:18:56.870,1766974736870,1766974736.87,815.12823,818.3516,809.0842,807.47253
2025-12-28 21:18:56.870,1766974736870,1766974736.87,807.47253,809.89014,809.89014,805.8608
2025-12-28 21:18:56.871,1766974736871,1766974736.871,809.0842,801.4286,815.5311,802.6374
2025-12-28 21:18:56.871,1766974736871,1766974736.871,815.9341,813.5165,814.3223,804.65204
2025-12-28 21:18:56.871,1766974736871,1766974736.871,834.4689,826.4103,814.3223,817.1429
2025-12-28 21:18:56.872,1766974736872,1766974736.872,846.1539,826.0073,820.7692,828.8278
2025-12-28 21:18:56.872,1766974736872,1766974736.872,829.2308,823.5897,820.7692,821.978
2025-12-28 21:18:56.873,1766974736873,1766974736.873,812.71063,819.5604,828.4249,826.0073
2025-12-28 21:18:56.899,1766974736899,1766974736.899,800.6227,805.4579,832.0513,840.5128
2025-12-28 21:18:56.899,1766974736899,1766974736.899,795.38464,807.47253,826.0073,843.3333
2025-12-28 21:18:56.900,1766974736900,1766974736.9,803.0403,809.0842,813.5165,819.15753
2025-12-28 21:18:56.900,1766974736900,1766974736.9,802.23444,809.0842,814.3223,824.7985
2025-12-28 21:18:56.900,1766974736900,1766974736.9,792.96704,809.89014,815.9341,835.6777
2025-12-28 21:18:56.900,1766974736900,1766974736.9,793.7729,806.26373,814.3223,828.4249
2025-12-28 21:18:56.901,1766974736901,1766974736.901,799.011,801.4286,811.0989,806.6667
2025-12-28 21:18:56.901,1766974736901,1766974736.901,799.011,799.81683,812.71063,802.6374
2025-12-28 21:18:56.901,1766974736901,1766974736.901,796.5934,798.20514,802.6374,807.47253
2025-12-28 21:18:56.901,1766974736901,1766974736.901,796.5934,799.011,793.36993,811.0989
2025-12-28 21:18:56.902,1766974736902,1766974736.902,797.8022,804.65204,807.0696,814.7253
2025-12-28 21:18:56.902,1766974736902,1766974736.902,798.60803,804.65204,815.12823,813.91943
2025-12-28 21:18:56.934,1766974736934,1766974736.934,795.78754,800.2198,807.8755,804.2491
2025-12-28 21:18:56.935,1766974736935,1766974736.935,794.57874,804.65204,803.44324,798.60803
2025-12-28 21:18:56.937,1766974736937,1766974736.937,792.1612,804.65204,802.23444,793.7729
2025-12-28 21:18:56.938,1766974736938,1766974736.938,787.72894,792.5641,803.0403,786.9231
2025-12-28 21:18:56.938,1766974736938,1766974736.938,787.326,792.5641,805.4579,789.7436
2025-12-28 21:18:56.938,1766974736938,1766974736.938,792.1612,791.75824,798.20514,793.7729
2025-12-28 21:18:56.938,1766974736938,1766974736.938,794.9817,787.72894,797.8022,794.9817
2025-12-28 21:18:56.939,1766974736939,1766974736.939,788.5348,794.57874,805.05493,794.57874
2025-12-28 21:18:56.939,1766974736939,1766974736.939,784.5055,789.34064,798.60803,783.69965
2025-12-28 21:18:56.939,1766974736939,1766974736.939,794.17584,796.99634,807.0696,798.20514
2025-12-28 21:18:56.940,1766974736940,1766974736.94,793.36993,791.3553,798.20514,786.1172
2025-12-28 21:18:56.940,1766974736940,1766974736.94,787.326,790.9524,800.2198,782.0879
2025-12-28 21:18:57.002,1766974737002,1766974737.002,791.3553,793.36993,796.5934,785.7143
2025-12-28 21:18:57.002,1766974737002,1766974737.002,785.31134,788.5348,792.5641,782.49084
2025-12-28 21:18:57.003,1766974737003,1766974737.003,788.5348,785.7143,801.02563,785.7143
2025-12-28 21:18:57.003,1766974737003,1766974737.003,797.3993,794.17584,806.26373,792.5641
2025-12-28 21:18:57.003,1766974737003,1766974737.003,799.81683,800.2198,802.6374,792.5641
2025-12-28 21:18:57.004,1766974737004,1766974737.004,793.7729,800.2198,809.4872,795.38464
2025-12-28 21:18:57.004,1766974737004,1766974737.004,787.326,794.57874,808.68134,798.20514
2025-12-28 21:18:57.004,1766974737004,1766974737.004,781.28204,793.36993,801.8315,791.3553
2025-12-28 21:18:57.005,1766974737005,1766974737.005,791.3553,797.8022,803.8461,792.96704
2025-12-28 21:18:57.005,1766974737005,1766974737.005,776.8498,792.5641,790.14655,778.46155
2025-12-28 21:18:57.005,1766974737005,1766974737.005,781.28204,788.1319,791.3553,780.87915
2025-12-28 21:18:57.006,1766974737006,1766974737.006,789.7436,797.3993,802.6374,790.14655
2025-12-28 21:18:57.034,1766974737034,1766974737.034,783.2967,782.49084,801.4286,785.7143
2025-12-28 21:18:57.034,1766974737034,1766974737.034,781.28204,784.90845,802.6374,784.10254
2025-12-28 21:18:57.034,1766974737034,1766974737.034,789.7436,795.78754,801.4286,788.93774
2025-12-28 21:18:57.035,1766974737035,1766974737.035,792.96704,799.011,801.4286,794.17584
2025-12-28 21:18:57.036,1766974737036,1766974737.036,790.9524,796.1905,805.8608,794.9817
2025-12-28 21:18:57.037,1766974737037,1766974737.037,781.28204,793.36993,803.44324,790.14655
2025-12-28 21:18:57.037,1766974737037,1766974737.037,786.52014,793.36993,801.02563,799.41394
2025-12-28 21:18:57.037,1766974737037,1766974737.037,788.1319,792.5641,806.26373,791.75824
2025-12-28 21:18:57.038,1766974737038,1766974737.038,796.1905,796.99634,798.20514,797.8022
2025-12-28 21:18:57.038,1766974737038,1766974737.038,801.4286,804.2491,802.6374,797.3993
2025-12-28 21:18:57.038,1766974737038,1766974737.038,800.2198,805.4579,807.8755,803.0403
2025-12-28 21:18:57.039,1766974737039,1766974737.039,797.3993,805.4579,805.8608,801.02563
2025-12-28 21:18:57.105,1766974737105,1766974737.105,804.2491,801.02563,806.6667,798.20514
2025-12-28 21:18:57.105,1766974737105,1766974737.105,806.26373,798.20514,806.6667,799.41394
2025-12-28 21:18:57.106,1766974737106,1766974737.106,808.68134,801.4286,809.0842,803.0403
2025-12-28 21:18:57.106,1766974737106,1766974737.106,799.41394,803.8461,795.38464,800.2198
2025-12-28 21:18:57.106,1766974737106,1766974737.106,797.3993,801.02563,793.36993,797.8022
2025-12-28 21:18:57.107,1766974737107,1766974737.107,810.293,794.17584,813.1135,805.4579
2025-12-28 21:18:57.107,1766974737107,1766974737.107,806.6667,795.38464,803.8461,809.4872
2025-12-28 21:18:57.107,1766974737107,1766974737.107,809.89014,802.6374,788.93774,809.4872
2025-12-28 21:18:57.107,1766974737107,1766974737.107,809.89014,804.65204,798.20514,803.0403
2025-12-28 21:18:57.108,1766974737108,1766974737.108,796.5934,798.60803,811.9048,797.3993
2025-12-28 21:18:57.108,1766974737108,1766974737.108,788.5348,796.99634,810.293,793.7729
2025-12-28 21:18:57.108,1766974737108,1766974737.108,783.2967,791.3553,802.6374,787.72894
2025-12-28 21:18:57.141,1766974737141,1766974737.141,795.78754,782.49084,795.38464,790.9524
2025-12-28 21:18:57.141,1766974737141,1766974737.141,788.1319,783.2967,795.38464,788.93774
2025-12-28 21:18:57.142,1766974737142,1766974737.142,787.72894,796.5934,790.54944,794.9817
2025-12-28 21:18:57.142,1766974737142,1766974737.142,789.7436,793.7729,784.90845,792.96704
2025-12-28 21:18:57.142,1766974737142,1766974737.142,795.78754,784.10254,792.1612,791.75824
2025-12-28 21:18:57.143,1766974737143,1766974737.143,796.5934,784.90845,791.75824,800.6227
2025-12-28 21:18:57.145,1766974737145,1766974737.145,796.1905,790.14655,802.23444,796.99634
2025-12-28 21:18:57.145,1766974737145,1766974737.145,792.96704,794.9817,803.8461,792.96704
2025-12-28 21:18:57.145,1766974737145,1766974737.145,797.8022,794.9817,788.5348,798.20514
2025-12-28 21:18:57.146,1766974737146,1766974737.146,802.23444,789.34064,796.99634,806.26373
2025-12-28 21:18:57.146,1766974737146,1766974737.146,801.8315,784.5055,813.1135,809.0842
2025-12-28 21:18:57.146,1766974737146,1766974737.146,795.38464,790.14655,813.5165,798.20514
2025-12-28 21:18:57.174,1766974737174,1766974737.174,792.1612,789.34064,809.0842,792.5641
2025-12-28 21:18:57.175,1766974737175,1766974737.175,797.3993,785.7143,806.6667,802.6374
2025-12-28 21:18:57.175,1766974737175,1766974737.175,793.36993,790.14655,805.4579,796.5934
2025-12-28 21:18:57.176,1766974737176,1766974737.176,801.02563,790.9524,809.0842,800.6227
2025-12-28 21:18:57.176,1766974737176,1766974737.176,792.1612,795.78754,809.89014,794.57874
2025-12-28 21:18:57.177,1766974737177,1766974737.177,792.1612,786.9231,794.57874,798.60803
2025-12-28 21:18:57.177,1766974737177,1766974737.177,791.75824,787.72894,789.34064,789.7436
2025-12-28 21:18:57.177,1766974737177,1766974737.177,789.7436,789.34064,803.8461,779.2674
2025-12-28 21:18:57.178,1766974737178,1766974737.178,787.72894,774.43225,808.68134,782.0879
2025-12-28 21:18:57.178,1766974737178,1766974737.178,778.46155,780.87915,798.20514,783.2967
2025-12-28 21:18:57.178,1766974737178,1766974737.178,782.49084,802.23444,796.5934,784.10254
2025-12-28 21:18:57.178,1766974737178,1766974737.178,791.75824,814.3223,799.81683,784.90845
2025-12-28 21:18:57.241,1766974737241,1766974737.241,773.22345,794.57874,795.78754,767.98535
2025-12-28 21:18:57.242,1766974737242,1766974737.242,770.40295,789.7436,777.25275,770.40295
2025-12-28 21:18:57.242,1766974737242,1766974737.242,785.31134,809.89014,773.22345,780.07324
2025-12-28 21:18:57.243,1766974737243,1766974737.243,785.7143,803.0403,797.3993,777.25275
2025-12-28 21:18:57.243,1766974737243,1766974737.243,777.6557,790.14655,804.2491,770.40295
2025-12-28 21:18:57.243,1766974737243,1766974737.243,777.6557,790.54944,799.81683,770.40295
2025-12-28 21:18:57.244,1766974737244,1766974737.244,783.69965,792.1612,798.60803,777.6557
2025-12-28 21:18:57.244,1766974737244,1766974737.244,789.34064,787.72894,794.9817,781.28204
2025-12-28 21:18:57.245,1766974737245,1766974737.245,793.36993,786.1172,787.72894,784.5055
2025-12-28 21:18:57.246,1766974737246,1766974737.246,785.7143,786.52014,796.99634,781.28204
2025-12-28 21:18:57.246,1766974737246,1766974737.246,783.69965,799.81683,789.34064,782.0879
2025-12-28 21:18:57.246,1766974737246,1766974737.246,787.326,796.99634,781.685,786.1172
2025-12-28 21:18:57.273,1766974737273,1766974737.273,790.14655,788.93774,798.60803,782.8938
2025-12-28 21:18:57.274,1766974737274,1766974737.274,788.93774,795.78754,799.81683,784.5055
2025-12-28 21:18:57.274,1766974737274,1766974737.274,781.685,788.5348,797.3993,779.2674
2025-12-28 21:18:57.274,1766974737274,1766974737.274,790.9524,785.31134,795.38464,780.87915
2025-12-28 21:18:57.275,1766974737275,1766974737.275,791.3553,783.2967,790.54944,784.5055
2025-12-28 21:18:57.275,1766974737275,1766974737.275,781.685,782.0879,784.90845,778.0586
2025-12-28 21:18:57.275,1766974737275,1766974737.275,783.2967,779.67035,786.52014,776.04395
2025-12-28 21:18:57.276,1766974737276,1766974737.276,792.5641,797.8022,792.96704,788.1319
2025-12-28 21:18:57.276,1766974737276,1766974737.276,790.54944,782.8938,791.3553,784.5055
2025-12-28 21:18:57.276,1766974737276,1766974737.276,785.31134,781.28204,788.1319,778.46155
2025-12-28 21:18:57.276,1766974737276,1766974737.276,786.9231,783.2967,792.1612,777.6557
2025-12-28 21:18:57.277,1766974737277,1766974737.277,790.54944,788.5348,788.93774,786.1172
2025-12-28 21:18:57.305,1766974737305,1766974737.305,792.96704,783.69965,787.326,789.7436
2025-12-28 21:18:57.306,1766974737306,1766974737.306,789.34064,788.1319,788.1319,789.7436
2025-12-28 21:18:57.306,1766974737306,1766974737.306,793.36993,796.99634,793.36993,794.9817
2025-12-28 21:18:57.307,1766974737307,1766974737.307,797.3993,794.17584,788.1319,793.36993
2025-12-28 21:18:57.307,1766974737307,1766974737.307,794.17584,775.64105,796.5934,786.52014
2025-12-28 21:18:57.307,1766974737307,1766974737.307,794.17584,770.0,802.6374,786.1172
2025-12-28 21:18:57.307,1766974737307,1766974737.307,792.1612,786.9231,796.5934,782.8938
2025-12-28 21:18:57.308,1766974737308,1766974737.308,790.54944,788.93774,786.1172,782.0879
2025-12-28 21:18:57.308,1766974737308,1766974737.308,788.5348,787.326,790.9524,779.67035
2025-12-28 21:18:57.308,1766974737308,1766974737.308,790.54944,779.67035,787.326,785.7143
2025-12-28 21:18:57.309,1766974737309,1766974737.309,790.54944,790.54944,784.5055,778.46155
2025-12-28 21:18:57.310,1766974737310,1766974737.31,794.57874,786.1172,788.93774,786.1172
2025-12-28 21:18:57.372,1766974737372,1766974737.372,794.57874,784.5055,796.99634,783.69965
2025-12-28 21:18:57.373,1766974737373,1766974737.373,798.20514,789.34064,801.02563,787.326
2025-12-28 21:18:57.374,1766974737374,1766974737.374,801.8315,781.685,800.6227,799.011
2025-12-28 21:18:57.374,1766974737374,1766974737.374,800.6227,788.5348,794.57874,792.5641
2025-12-28 21:18:57.374,1766974737374,1766974737.374,798.60803,787.326,790.14655,794.57874
2025-12-28 21:18:57.375,1766974737375,1766974737.375,779.67035,784.90845,788.5348,785.31134
2025-12-28 21:18:57.375,1766974737375,1766974737.375,793.7729,772.01465,791.3553,792.1612
2025-12-28 21:18:57.376,1766974737376,1766974737.376,773.6264,785.7143,792.1612,786.1172
2025-12-28 21:18:57.376,1766974737376,1766974737.376,780.07324,784.10254,790.54944,785.7143
2025-12-28 21:18:57.376,1766974737376,1766974737.376,784.10254,783.2967,789.7436,784.5055
2025-12-28 21:18:57.377,1766974737377,1766974737.377,784.5055,778.86444,782.0879,785.7143
2025-12-28 21:18:57.377,1766974737377,1766974737.377,785.7143,779.67035,788.93774,788.5348
2025-12-28 21:18:57.405,1766974737405,1766974737.405,794.17584,792.1612,805.05493,796.5934
2025-12-28 21:18:57.405,1766974737405,1766974737.405,792.5641,804.65204,806.26373,797.3993
2025-12-28 21:18:57.406,1766974737406,1766974737.406,799.41394,802.6374,801.4286,794.9817
2025-12-28 21:18:57.406,1766974737406,1766974737.406,803.44324,808.68134,811.9048,804.2491
2025-12-28 21:18:57.406,1766974737406,1766974737.406,788.5348,795.78754,795.38464,789.34064
2025-12-28 21:18:57.407,1766974737407,1766974737.407,805.4579,799.011,806.6667,804.65204
2025-12-28 21:18:57.407,1766974737407,1766974737.407,801.8315,794.57874,801.8315,806.6667
2025-12-28 21:18:57.408,1766974737408,1766974737.408,794.17584,794.17584,804.2491,804.2491
2025-12-28 21:18:57.408,1766974737408,1766974737.408,792.1612,792.5641,800.2198,796.99634
2025-12-28 21:18:57.408,1766974737408,1766974737.408,792.1612,787.72894,801.02563,801.02563
2025-12-28 21:18:57.409,1766974737409,1766974737.409,794.9817,786.1172,803.44324,805.05493
2025-12-28 21:18:57.409,1766974737409,1766974737.409,794.57874,791.3553,805.8608,806.26373
2025-12-28 21:18:57.473,1766974737473,1766974737.473,798.20514,810.293,809.4872,808.2784
2025-12-28 21:18:57.474,1766974737474,1766974737.474,802.23444,788.93774,802.6374,806.6667
2025-12-28 21:18:57.474,1766974737474,1766974737.474,799.011,786.1172,803.0403,809.0842
2025-12-28 21:18:57.474,1766974737474,1766974737.474,801.02563,809.4872,802.23444,810.293
2025-12-28 21:18:57.475,1766974737475,1766974737.475,801.4286,798.60803,796.1905,808.2784
2025-12-28 21:18:57.475,1766974737475,1766974737.475,796.1905,795.78754,800.2198,805.4579
2025-12-28 21:18:57.475,1766974737475,1766974737.475,794.57874,796.5934,802.6374,807.8755
2025-12-28 21:18:57.475,1766974737475,1766974737.475,796.99634,796.5934,798.20514,801.8315
2025-12-28 21:18:57.476,1766974737476,1766974737.476,800.6227,789.34064,786.9231,794.9817
2025-12-28 21:18:57.476,1766974737476,1766974737.476,801.8315,786.52014,790.9524,794.57874
2025-12-28 21:18:57.476,1766974737476,1766974737.476,807.0696,793.36993,804.65204,797.3993
2025-12-28 21:18:57.477,1766974737477,1766974737.477,815.5311,796.1905,805.05493,794.57874
2025-12-28 21:18:57.505,1766974737505,1766974737.505,819.5604,799.011,807.47253,791.3553
2025-12-28 21:18:57.506,1766974737506,1766974737.506,809.89014,801.4286,806.26373,796.99634
2025-12-28 21:18:57.506,1766974737506,1766974737.506,799.011,792.1612,790.54944,807.47253
2025-12-28 21:18:57.506,1766974737506,1766974737.506,793.36993,801.8315,803.0403,817.1429
2025-12-28 21:18:57.507,1766974737507,1766974737.507,789.7436,808.2784,811.0989,819.9634
2025-12-28 21:18:57.507,1766974737507,1766974737.507,783.69965,793.36993,790.14655,821.5751
2025-12-28 21:18:57.507,1766974737507,1766974737.507,780.07324,788.1319,794.9817,818.7546
2025-12-28 21:18:57.508,1766974737508,1766974737.508,793.36993,793.7729,814.7253,810.293
2025-12-28 21:18:57.508,1766974737508,1766974737.508,797.3993,792.5641,815.12823,801.02563
2025-12-28 21:18:57.508,1766974737508,1766974737.508,789.7436,788.1319,803.8461,792.96704
2025-12-28 21:18:57.509,1766974737509,1766974737.509,790.9524,785.31134,796.5934,788.1319
2025-12-28 21:18:57.509,1766974737509,1766974737.509,786.9231,782.49084,798.60803,789.7436
2025-12-28 21:18:57.563,1766974737563,1766974737.563,795.38464,787.72894,786.9231,788.1319
2025-12-28 21:18:57.563,1766974737563,1766974737.563,792.96704,773.6264,787.72894,786.9231
2025-12-28 21:18:57.565,1766974737565,1766974737.565,794.17584,780.4762,798.20514,788.93774
2025-12-28 21:18:57.565,1766974737565,1766974737.565,788.1319,789.7436,802.23444,786.1172
2025-12-28 21:18:57.566,1766974737566,1766974737.566,786.9231,782.49084,797.8022,785.31134
2025-12-28 21:18:57.566,1766974737566,1766974737.566,790.54944,771.2088,787.72894,787.326
2025-12-28 21:18:57.566,1766974737566,1766974737.566,785.7143,775.64105,795.78754,783.69965
2025-12-28 21:18:57.566,1766974737566,1766974737.566,778.86444,780.4762,795.38464,777.25275
2025-12-28 21:18:57.567,1766974737567,1766974737.567,786.1172,780.07324,790.14655,791.3553
2025-12-28 21:18:57.567,1766974737567,1766974737.567,780.87915,775.64105,792.5641,787.72894
2025-12-28 21:18:57.567,1766974737567,1766974737.567,778.0586,775.64105,794.9817,789.7436
2025-12-28 21:18:57.567,1766974737567,1766974737.567,775.64105,780.87915,790.14655,779.2674
2025-12-28 21:18:57.616,1766974737616,1766974737.616,791.3553,773.22345,791.3553,796.5934
2025-12-28 21:18:57.617,1766974737617,1766974737.617,788.1319,771.6117,781.685,788.93774
2025-12-28 21:18:57.618,1766974737618,1766974737.618,786.1172,782.8938,784.90845,788.1319
2025-12-28 21:18:57.618,1766974737618,1766974737.618,790.54944,786.52014,796.99634,790.9524
2025-12-28 21:18:57.618,1766974737618,1766974737.618,790.14655,763.5531,788.1319,788.5348
2025-12-28 21:18:57.618,1766974737618,1766974737.618,788.1319,772.4176,783.69965,785.31134
2025-12-28 21:18:57.619,1766974737619,1766974737.619,785.31134,773.6264,798.60803,794.9817
2025-12-28 21:18:57.619,1766974737619,1766974737.619,784.90845,772.01465,794.9817,788.5348
2025-12-28 21:18:57.619,1766974737619,1766974737.619,786.52014,775.64105,792.96704,783.69965
2025-12-28 21:18:57.619,1766974737619,1766974737.619,787.72894,782.49084,791.75824,785.31134
2025-12-28 21:18:57.620,1766974737620,1766974737.62,783.69965,778.86444,790.9524,783.2967
2025-12-28 21:18:57.620,1766974737620,1766974737.62,789.34064,776.4469,784.10254,782.49084
2025-12-28 21:18:57.645,1766974737645,1766974737.645,800.2198,760.32965,793.7729,795.78754
2025-12-28 21:18:57.645,1766974737645,1766974737.645,799.81683,773.22345,784.90845,794.17584
2025-12-28 21:18:57.646,1766974737646,1766974737.646,801.4286,786.9231,788.5348,794.17584
2025-12-28 21:18:57.646,1766974737646,1766974737.646,795.78754,770.40295,803.8461,790.54944
2025-12-28 21:18:57.648,1766974737648,1766974737.648,789.34064,772.4176,789.34064,791.3553
2025-12-28 21:18:57.648,1766974737648,1766974737.648,789.34064,784.90845,804.65204,787.72894
2025-12-28 21:18:57.649,1766974737649,1766974737.649,795.78754,747.8388,790.9524,797.8022
2025-12-28 21:18:57.649,1766974737649,1766974737.649,794.9817,786.52014,801.02563,796.5934
2025-12-28 21:18:57.649,1766974737649,1766974737.649,782.8938,785.7143,786.52014,786.52014
2025-12-28 21:18:57.650,1766974737650,1766974737.65,787.326,777.25275,783.69965,790.14655
2025-12-28 21:18:57.650,1766974737650,1766974737.65,794.9817,786.9231,794.9817,787.72894
2025-12-28 21:18:57.650,1766974737650,1766974737.65,785.7143,771.6117,795.38464,774.43225
2025-12-28 21:18:57.681,1766974737681,1766974737.681,764.7619,763.1502,789.34064,774.83514
2025-12-28 21:18:57.681,1766974737681,1766974737.681,774.0293,765.16486,797.3993,776.4469
2025-12-28 21:18:57.682,1766974737682,1766974737.682,787.72894,793.7729,800.6227,781.685
2025-12-28 21:18:57.682,1766974737682,1766974737.682,774.83514,735.7509,792.1612,769.59705
2025-12-28 21:18:57.682,1766974737682,1766974737.682,775.64105,777.25275,786.52014,777.6557
2025-12-28 21:18:57.682,1766974737682,1766974737.682,779.2674,751.4652,800.2198,778.46155
2025-12-28 21:18:57.683,1766974737683,1766974737.683,797.8022,823.1868,806.26373,788.1319
2025-12-28 21:18:57.683,1766974737683,1766974737.683,782.49084,808.68134,784.90845,775.2381
2025-12-28 21:18:57.683,1766974737683,1766974737.683,755.4945,769.19415,786.52014,751.06226
2025-12-28 21:18:57.683,1766974737683,1766974737.683,746.2271,743.8095,795.78754,730.9158
2025-12-28 21:18:57.684,1766974737684,1766974737.684,741.79486,743.4066,784.10254,728.0952
2025-12-28 21:18:57.684,1766974737684,1766974737.684,747.8388,772.01465,774.0293,741.79486
2025-12-28 21:18:57.758,1766974737758,1766974737.758,756.30035,772.4176,779.67035,750.65936
2025-12-28 21:18:57.759,1766974737759,1766974737.759,786.9231,800.2198,777.25275,784.10254
2025-12-28 21:18:57.759,1766974737759,1766974737.759,764.35895,750.65936,774.83514,757.9121
2025-12-28 21:18:57.761,1766974737761,1766974737.761,784.90845,799.41394,790.54944,780.4762
2025-12-28 21:18:57.761,1766974737761,1766974737.761,778.86444,774.0293,801.02563,768.3883
2025-12-28 21:18:57.761,1766974737761,1766974737.761,776.8498,776.8498,789.7436,770.80585
2025-12-28 21:18:57.763,1766974737763,1766974737.763,784.90845,776.4469,801.8315,781.28204
2025-12-28 21:18:57.763,1766974737763,1766974737.763,766.77655,766.3736,781.28204,767.1795
2025-12-28 21:18:57.763,1766974737763,1766974737.763,780.87915,768.7912,802.23444,783.2967
2025-12-28 21:18:57.764,1766974737764,1766974737.764,795.78754,781.28204,785.31134,792.5641
2025-12-28 21:18:57.764,1766974737764,1766974737.764,803.8461,787.72894,808.68134,803.44324
2025-12-28 21:18:57.764,1766974737764,1766974737.764,779.67035,774.83514,786.9231,774.83514
2025-12-28 21:18:57.812,1766974737812,1766974737.812,805.8608,786.52014,817.1429,803.44324
2025-12-28 21:18:57.813,1766974737813,1766974737.813,826.4103,799.81683,818.3516,828.4249
2025-12-28 21:18:57.813,1766974737813,1766974737.813,781.685,761.9414,785.7143,786.9231
2025-12-28 21:18:57.813,1766974737813,1766974737.813,792.5641,772.01465,803.0403,789.7436
2025-12-28 21:18:57.813,1766974737813,1766974737.813,818.3516,788.5348,799.011,820.7692
2025-12-28 21:18:57.814,1766974737814,1766974737.814,803.8461,782.8938,808.68134,810.293
2025-12-28 21:18:57.814,1766974737814,1766974737.814,794.9817,772.8205,798.20514,797.3993
2025-12-28 21:18:57.814,1766974737814,1766974737.814,789.7436,763.95605,788.93774,795.78754
2025-12-28 21:18:57.814,1766974737814,1766974737.814,798.60803,766.3736,788.5348,804.2491
2025-12-28 21:18:57.815,1766974737815,1766974737.815,812.71063,784.5055,790.54944,810.293
2025-12-28 21:18:57.815,1766974737815,1766974737.815,811.0989,798.60803,795.78754,811.9048
2025-12-28 21:18:57.815,1766974737815,1766974737.815,815.5311,806.6667,797.3993,813.1135
2025-12-28 21:18:57.850,1766974737850,1766974737.85,811.0989,790.54944,797.3993,806.26373
2025-12-28 21:18:57.851,1766974737851,1766974737.851,825.2015,796.1905,818.7546,819.5604
2025-12-28 21:18:57.851,1766974737851,1766974737.851,828.4249,816.337,830.84247,820.3663
2025-12-28 21:18:57.852,1766974737852,1766974737.852,804.65204,786.9231,809.0842,797.8022
2025-12-28 21:18:57.852,1766974737852,1766974737.852,801.02563,780.87915,792.96704,790.14655
2025-12-28 21:18:57.852,1766974737852,1766974737.852,797.8022,788.93774,807.8755,782.49084
2025-12-28 21:18:57.852,1766974737852,1766974737.852,793.7729,780.07324,801.8315,783.69965
2025-12-28 21:18:57.853,1766974737853,1766974737.853,806.26373,787.72894,785.7143,795.78754
2025-12-28 21:18:57.854,1766974737854,1766974737.854,820.3663,796.1905,812.71063,806.6667
2025-12-28 21:18:57.855,1766974737855,1766974737.855,787.72894,772.8205,790.9524,779.67035
2025-12-28 21:18:57.855,1766974737855,1766974737.855,792.5641,774.0293,772.8205,782.0879
2025-12-28 21:18:57.855,1766974737855,1766974737.855,809.4872,789.34064,820.3663,798.60803
2025-12-28 21:18:57.888,1766974737888,1766974737.888,803.8461,786.1172,798.60803,794.57874
2025-12-28 21:18:57.889,1766974737889,1766974737.889,803.44324,788.1319,819.5604,789.34064
2025-12-28 21:18:57.889,1766974737889,1766974737.889,799.81683,782.49084,810.696,788.93774
2025-12-28 21:18:57.889,1766974737889,1766974737.889,797.8022,772.8205,800.2198,790.9524
2025-12-28 21:18:57.890,1766974737890,1766974737.89,784.5055,772.4176,793.7729,782.49084
2025-12-28 21:18:57.890,1766974737890,1766974737.89,791.3553,763.1502,773.22345,782.0879
2025-12-28 21:18:57.890,1766974737890,1766974737.89,794.9817,780.4762,801.02563,787.72894
2025-12-28 21:18:57.890,1766974737890,1766974737.89,801.02563,793.7729,831.2454,797.8022
2025-12-28 21:18:57.891,1766974737891,1766974737.891,819.15753,803.8461,800.2198,813.5165
2025-12-28 21:18:57.891,1766974737891,1766974737.891,810.696,776.4469,803.44324,812.3077
2025-12-28 21:18:57.891,1766974737891,1766974737.891,794.9817,773.22345,813.91943,787.72894
2025-12-28 21:18:57.891,1766974737891,1766974737.891,780.4762,769.19415,789.7436,771.6117
2025-12-28 21:18:57.925,1766974737925,1766974737.925,808.2784,805.8608,815.9341,803.0403
2025-12-28 21:18:57.926,1766974737926,1766974737.926,791.75824,788.1319,809.89014,788.5348
2025-12-28 21:18:57.926,1766974737926,1766974737.926,811.50183,804.65204,834.0659,813.91943
2025-12-28 21:18:57.926,1766974737926,1766974737.926,809.0842,806.6667,832.8571,807.47253
2025-12-28 21:18:57.927,1766974737927,1766974737.927,770.40295,761.53845,776.8498,773.6264
2025-12-28 21:18:57.927,1766974737927,1766974737.927,779.67035,756.7033,772.01465,780.4762
2025-12-28 21:18:57.927,1766974737927,1766974737.927,781.28204,768.7912,796.5934,780.4762
2025-12-28 21:18:57.928,1766974737928,1766974737.928,798.20514,780.87915,812.3077,799.011
2025-12-28 21:18:57.928,1766974737928,1766974737.928,791.75824,752.27106,787.326,786.9231
2025-12-28 21:18:57.929,1766974737929,1766974737.929,806.26373,801.02563,814.7253,815.12823
2025-12-28 21:18:57.930,1766974737930,1766974737.93,796.99634,787.326,794.9817,796.1905
2025-12-28 21:18:57.930,1766974737930,1766974737.93,784.5055,770.80585,785.31134,776.8498
2025-12-28 21:18:57.999,1766974737999,1766974737.999,784.5055,772.01465,788.93774,778.86444
2025-12-28 21:18:58.000,1766974738000,1766974738.0,776.4469,771.6117,787.326,775.64105
2025-12-28 21:18:58.000,1766974738000,1766974738.0,780.07324,772.8205,784.90845,777.25275
2025-12-28 21:18:58.000,1766974738000,1766974738.0,788.5348,777.6557,790.54944,786.1172
2025-12-28 21:18:58.001,1766974738001,1766974738.001,792.96704,772.4176,793.7729,780.4762
2025-12-28 21:18:58.001,1766974738001,1766974738.001,795.38464,776.8498,798.20514,780.87915
2025-12-28 21:18:58.001,1766974738001,1766974738.001,789.34064,778.0586,794.17584,782.49084
2025-12-28 21:18:58.002,1766974738002,1766974738.002,792.5641,773.6264,790.9524,782.0879
2025-12-28 21:18:58.002,1766974738002,1766974738.002,793.36993,776.04395,795.38464,786.1172
2025-12-28 21:18:58.002,1766974738002,1766974738.002,785.7143,765.16486,778.0586,785.31134
2025-12-28 21:18:58.002,1766974738002,1766974738.002,780.4762,772.8205,758.71796,775.64105
2025-12-28 21:18:58.002,1766974738002,1766974738.002,791.75824,787.326,799.011,783.2967
2025-12-28 21:18:58.026,1766974738026,1766974738.026,799.41394,783.69965,827.2161,790.9524
2025-12-28 21:18:58.027,1766974738027,1766974738.027,767.1795,766.3736,794.9817,768.7912
2025-12-28 21:18:58.027,1766974738027,1766974738.027,776.04395,776.8498,792.5641,776.4469
2025-12-28 21:18:58.027,1766974738027,1766974738.027,776.4469,769.59705,807.47253,774.83514
2025-12-28 21:18:58.028,1766974738028,1766974738.028,780.4762,782.8938,797.8022,787.72894
2025-12-28 21:18:58.028,1766974738028,1766974738.028,780.07324,788.1319,802.23444,789.7436
2025-12-28 21:18:58.028,1766974738028,1766974738.028,778.0586,793.7729,798.60803,785.7143
2025-12-28 21:18:58.029,1766974738029,1766974738.029,787.326,810.696,792.96704,794.17584
2025-12-28 21:18:58.029,1766974738029,1766974738.029,785.7143,787.72894,796.99634,798.20514
2025-12-28 21:18:58.029,1766974738029,1766974738.029,784.5055,764.35895,799.011,799.011
2025-12-28 21:18:58.029,1766974738029,1766974738.029,789.7436,780.87915,792.96704,805.4579
2025-12-28 21:18:58.030,1766974738030,1766974738.03,784.90845,795.38464,785.31134,801.02563
2025-12-28 21:18:58.059,1766974738059,1766974738.059,783.69965,792.96704,791.75824,789.7436
2025-12-28 21:18:58.059,1766974738059,1766974738.059,777.6557,782.0879,794.57874,778.0586
2025-12-28 21:18:58.060,1766974738060,1766974738.06,770.80585,777.6557,788.1319,775.64105
2025-12-28 21:18:58.060,1766974738060,1766974738.06,781.28204,780.4762,792.1612,788.5348
2025-12-28 21:18:58.060,1766974738060,1766974738.06,791.75824,786.1172,799.41394,792.96704
2025-12-28 21:18:58.061,1766974738061,1766974738.061,806.6667,791.3553,809.4872,811.0989
2025-12-28 21:18:58.061,1766974738061,1766974738.061,809.89014,793.36993,805.8608,820.3663
2025-12-28 21:18:58.061,1766974738061,1766974738.061,796.99634,787.326,794.17584,797.8022
2025-12-28 21:18:58.061,1766974738061,1766974738.061,795.78754,784.90845,791.75824,799.011
2025-12-28 21:18:58.061,1766974738061,1766974738.061,801.8315,789.7436,804.65204,812.3077
2025-12-28 21:18:58.062,1766974738062,1766974738.062,794.57874,784.90845,805.4579,805.05493
2025-12-28 21:18:58.062,1766974738062,1766974738.062,794.17584,782.8938,806.26373,809.4872
2025-12-28 21:18:58.113,1766974738113,1766974738.113,795.38464,792.96704,804.2491,806.6667
2025-12-28 21:18:58.114,1766974738114,1766974738.114,807.47253,785.7143,828.4249,815.9341
2025-12-28 21:18:58.114,1766974738114,1766974738.114,808.2784,786.9231,815.5311,812.71063
2025-12-28 21:18:58.115,1766974738115,1766974738.115,791.75824,781.28204,815.5311,803.0403
2025-12-28 21:18:58.115,1766974738115,1766974738.115,801.8315,780.07324,807.8755,805.4579
2025-12-28 21:18:58.115,1766974738115,1766974738.115,812.71063,785.7143,799.011,805.8608
2025-12-28 21:18:58.115,1766974738115,1766974738.115,812.71063,793.7729,777.6557,796.99634
2025-12-28 21:18:58.116,1766974738116,1766974738.116,811.9048,790.14655,778.46155,795.38464
2025-12-28 21:18:58.116,1766974738116,1766974738.116,817.9487,786.1172,809.89014,799.41394
2025-12-28 21:18:58.116,1766974738116,1766974738.116,818.7546,790.9524,813.5165,803.0403
2025-12-28 21:18:58.116,1766974738116,1766974738.116,793.7729,778.0586,801.02563,799.41394
2025-12-28 21:18:58.117,1766974738117,1766974738.117,781.28204,778.0586,803.8461,806.6667
2025-12-28 21:18:58.190,1766974738190,1766974738.19,781.28204,788.93774,802.23444,821.5751
2025-12-28 21:18:58.191,1766974738191,1766974738.191,782.49084,787.72894,803.0403,824.7985
2025-12-28 21:18:58.193,1766974738193,1766974738.193,781.28204,779.67035,810.293,815.5311
2025-12-28 21:18:58.193,1766974738193,1766974738.193,770.80585,769.59705,791.75824,798.20514
2025-12-28 21:18:58.193,1766974738193,1766974738.193,778.86444,772.8205,785.7143,799.81683
2025-12-28 21:18:58.194,1766974738194,1766974738.194,799.011,782.8938,804.2491,812.3077
2025-12-28 21:18:58.194,1766974738194,1766974738.194,804.2491,782.0879,805.4579,811.50183
2025-12-28 21:18:58.194,1766974738194,1766974738.194,798.60803,790.9524,796.99634,806.26373
2025-12-28 21:18:58.194,1766974738194,1766974738.194,794.57874,793.7729,802.23444,801.02563
2025-12-28 21:18:58.195,1766974738195,1766974738.195,793.36993,782.0879,806.6667,799.011
2025-12-28 21:18:58.195,1766974738195,1766974738.195,794.57874,781.28204,803.44324,800.2198
2025-12-28 21:18:58.195,1766974738195,1766974738.195,797.8022,788.93774,803.8461,798.20514
2025-12-28 21:18:58.223,1766974738223,1766974738.223,798.20514,787.72894,801.4286,794.9817
2025-12-28 21:18:58.224,1766974738224,1766974738.224,803.0403,797.3993,812.3077,805.8608
2025-12-28 21:18:58.224,1766974738224,1766974738.224,807.47253,794.17584,809.89014,812.71063
2025-12-28 21:18:58.225,1766974738225,1766974738.225,803.0403,774.83514,794.9817,805.05493
2025-12-28 21:18:58.225,1766974738225,1766974738.225,794.9817,781.685,799.81683,797.3993
2025-12-28 21:18:58.226,1766974738226,1766974738.226,802.6374,803.44324,815.12823,805.8608
2025-12-28 21:18:58.226,1766974738226,1766974738.226,804.65204,803.8461,811.0989,812.3077
2025-12-28 21:18:58.226,1766974738226,1766974738.226,799.011,796.1905,798.60803,803.8461
2025-12-28 21:18:58.227,1766974738227,1766974738.227,796.1905,801.4286,807.8755,798.60803
2025-12-28 21:18:58.227,1766974738227,1766974738.227,804.2491,801.4286,822.7839,807.47253
2025-12-28 21:18:58.228,1766974738228,1766974738.228,790.9524,786.1172,795.78754,794.57874
2025-12-28 21:18:58.228,1766974738228,1766974738.228,802.23444,792.1612,812.3077,807.47253
2025-12-28 21:18:58.265,1766974738265,1766974738.265,792.1612,779.2674,786.9231,794.9817
2025-12-28 21:18:58.266,1766974738266,1766974738.266,796.5934,788.5348,799.41394,807.0696
2025-12-28 21:18:58.266,1766974738266,1766974738.266,795.38464,794.9817,810.293,803.44324
2025-12-28 21:18:58.266,1766974738266,1766974738.266,786.52014,784.90845,799.81683,786.1172
2025-12-28 21:18:58.268,1766974738268,1766974738.268,788.1319,778.0586,796.1905,782.0879
2025-12-28 21:18:58.268,1766974738268,1766974738.268,794.57874,780.4762,799.41394,792.5641
2025-12-28 21:18:58.268,1766974738268,1766974738.268,799.81683,789.7436,805.4579,798.20514
2025-12-28 21:18:58.268,1766974738268,1766974738.268,800.2198,788.93774,802.23444,792.96704
2025-12-28 21:18:58.269,1766974738269,1766974738.269,803.0403,798.60803,812.3077,798.20514
2025-12-28 21:18:58.269,1766974738269,1766974738.269,803.0403,794.9817,809.89014,808.2784
2025-12-28 21:18:58.269,1766974738269,1766974738.269,801.02563,786.52014,790.9524,796.99634
2025-12-28 21:18:58.269,1766974738269,1766974738.269,807.8755,790.14655,799.011,811.50183
2025-12-28 21:18:58.316,1766974738316,1766974738.316,815.5311,797.8022,811.0989,806.6667
2025-12-28 21:18:58.316,1766974738316,1766974738.316,817.5458,796.99634,809.4872,805.4579
2025-12-28 21:18:58.317,1766974738317,1766974738.317,811.9048,797.8022,806.26373,807.0696
2025-12-28 21:18:58.317,1766974738317,1766974738.317,812.3077,801.8315,810.696,811.9048
2025-12-28 21:18:58.317,1766974738317,1766974738.317,811.50183,796.99634,813.91943,803.8461
2025-12-28 21:18:58.317,1766974738317,1766974738.317,805.05493,794.57874,802.23444,800.2198
2025-12-28 21:18:58.318,1766974738318,1766974738.318,793.36993,779.2674,790.14655,789.7436
2025-12-28 21:18:58.318,1766974738318,1766974738.318,792.96704,786.52014,786.9231,786.9231
2025-12-28 21:18:58.318,1766974738318,1766974738.318,798.60803,796.5934,797.8022,792.96704
2025-12-28 21:18:58.318,1766974738318,1766974738.318,805.4579,804.65204,805.4579,801.02563
2025-12-28 21:18:58.319,1766974738319,1766974738.319,790.14655,779.2674,784.10254,786.52014
2025-12-28 21:18:58.319,1766974738319,1766974738.319,800.6227,788.5348,794.57874,796.1905
2025-12-28 21:18:58.361,1766974738361,1766974738.361,808.68134,798.60803,807.8755,805.8608
2025-12-28 21:18:58.362,1766974738362,1766974738.362,800.6227,792.96704,801.4286,794.57874
2025-12-28 21:18:58.362,1766974738362,1766974738.362,795.78754,786.52014,792.5641,786.1172
2025-12-28 21:18:58.362,1766974738362,1766974738.362,797.3993,791.75824,787.326,790.9524
2025-12-28 21:18:58.363,1766974738363,1766974738.363,797.3993,788.5348,798.60803,792.96704
2025-12-28 21:18:58.363,1766974738363,1766974738.363,800.2198,788.5348,789.34064,794.57874
2025-12-28 21:18:58.365,1766974738365,1766974738.365,806.26373,796.1905,810.293,807.47253
2025-12-28 21:18:58.365,1766974738365,1766974738.365,801.8315,792.1612,797.3993,796.1905
2025-12-28 21:18:58.365,1766974738365,1766974738.365,796.5934,793.7729,799.81683,793.36993
2025-12-28 21:18:58.365,1766974738365,1766974738.365,802.23444,793.36993,790.9524,794.57874
2025-12-28 21:18:58.366,1766974738366,1766974738.366,798.60803,789.34064,801.4286,800.6227
2025-12-28 21:18:58.366,1766974738366,1766974738.366,799.41394,787.72894,808.2784,797.8022
2025-12-28 21:18:58.417,1766974738417,1766974738.417,803.8461,787.72894,811.50183,808.68134
2025-12-28 21:18:58.417,1766974738417,1766974738.417,800.6227,783.2967,793.36993,807.47253
2025-12-28 21:18:58.418,1766974738418,1766974738.418,804.65204,801.4286,806.26373,809.0842
2025-12-28 21:18:58.418,1766974738418,1766974738.418,811.0989,815.12823,834.4689,816.7399
2025-12-28 21:18:58.418,1766974738418,1766974738.418,809.0842,805.05493,828.4249,814.7253
2025-12-28 21:18:58.418,1766974738418,1766974738.418,784.90845,781.28204,796.99634,789.34064
2025-12-28 21:18:58.419,1766974738419,1766974738.419,771.2088,770.80585,790.54944,774.0293
2025-12-28 21:18:58.419,1766974738419,1766974738.419,776.4469,773.6264,797.3993,776.8498
2025-12-28 21:18:58.419,1766974738419,1766974738.419,784.5055,780.4762,794.57874,788.5348
2025-12-28 21:18:58.419,1766974738419,1766974738.419,794.9817,785.7143,803.8461,805.8608
2025-12-28 21:18:58.420,1766974738420,1766974738.42,795.78754,778.86444,807.0696,804.65204
2025-12-28 21:18:58.420,1766974738420,1766974738.42,792.1612,776.04395,803.8461,791.3553
2025-12-28 21:18:58.453,1766974738453,1766974738.453,778.0586,771.6117,796.1905,784.5055
2025-12-28 21:18:58.454,1766974738454,1766974738.454,787.72894,780.4762,797.8022,786.52014
2025-12-28 21:18:58.454,1766974738454,1766974738.454,773.6264,771.2088,788.93774,784.90845
2025-12-28 21:18:58.454,1766974738454,1766974738.454,793.36993,783.69965,797.3993,794.17584
2025-12-28 21:18:58.455,1766974738455,1766974738.455,777.6557,772.8205,790.14655,775.64105
2025-12-28 21:18:58.455,1766974738455,1766974738.455,778.86444,767.98535,782.49084,775.2381
2025-12-28 21:18:58.455,1766974738455,1766974738.455,784.10254,778.46155,788.1319,780.4762
2025-12-28 21:18:58.455,1766974738455,1766974738.455,801.4286,795.38464,809.89014,802.23444
2025-12-28 21:18:58.457,1766974738457,1766974738.457,791.75824,789.34064,799.011,796.99634
2025-12-28 21:18:58.457,1766974738457,1766974738.457,773.22345,778.46155,777.6557,774.83514
2025-12-28 21:18:58.457,1766974738457,1766974738.457,775.2381,772.01465,788.1319,779.2674
2025-12-28 21:18:58.458,1766974738458,1766974738.458,777.25275,780.07324,798.20514,788.1319
2025-12-28 21:18:58.482,1766974738482,1766974738.482,771.6117,788.1319,786.52014,780.87915
2025-12-28 21:18:58.483,1766974738483,1766974738.483,774.0293,780.4762,782.8938,774.83514
2025-12-28 21:18:58.483,1766974738483,1766974738.483,776.8498,777.25275,793.7729,780.07324
2025-12-28 21:18:58.483,1766974738483,1766974738.483,778.86444,786.1172,792.1612,784.10254
2025-12-28 21:18:58.484,1766974738484,1766974738.484,790.9524,797.8022,784.5055,792.1612
2025-12-28 21:18:58.484,1766974738484,1766974738.484,793.36993,792.1612,794.9817,790.9524
2025-12-28 21:18:58.484,1766974738484,1766974738.484,782.8938,777.6557,805.8608,781.28204
2025-12-28 21:18:58.485,1766974738485,1766974738.485,774.43225,772.8205,786.1172,776.8498
2025-12-28 21:18:58.485,1766974738485,1766974738.485,774.43225,778.86444,786.9231,779.67035
2025-12-28 21:18:58.485,1766974738485,1766974738.485,776.4469,768.3883,794.9817,778.46155
2025-12-28 21:18:58.485,1766974738485,1766974738.485,777.6557,776.8498,792.1612,788.93774
2025-12-28 21:18:58.486,1766974738486,1766974738.486,776.4469,781.685,799.011,790.14655
2025-12-28 21:18:58.547,1766974738547,1766974738.547,778.46155,787.72894,800.6227,785.31134
2025-12-28 21:18:58.548,1766974738548,1766974738.548,785.31134,790.9524,798.20514,786.9231
2025-12-28 21:18:58.548,1766974738548,1766974738.548,787.326,790.9524,792.96704,788.5348
2025-12-28 21:18:58.549,1766974738549,1766974738.549,787.72894,788.1319,788.93774,786.1172
2025-12-28 21:18:58.549,1766974738549,1766974738.549,790.9524,787.72894,790.54944,787.72894
2025-12-28 21:18:58.549,1766974738549,1766974738.549,789.34064,785.7143,796.1905,788.5348
2025-12-28 21:18:58.550,1766974738550,1766974738.55,783.69965,780.07324,785.31134,797.8022
2025-12-28 21:18:58.550,1766974738550,1766974738.55,784.5055,781.28204,787.72894,786.9231
2025-12-28 21:18:58.550,1766974738550,1766974738.55,788.5348,783.69965,798.60803,794.9817
2025-12-28 21:18:58.551,1766974738551,1766974738.551,791.75824,792.1612,807.0696,786.52014
2025-12-28 21:18:58.552,1766974738552,1766974738.552,790.54944,781.685,808.68134,791.75824
2025-12-28 21:18:58.553,1766974738553,1766974738.553,784.5055,779.2674,800.6227,786.52014
2025-12-28 21:18:58.583,1766974738583,1766974738.583,786.9231,792.1612,797.8022,782.0879
2025-12-28 21:18:58.583,1766974738583,1766974738.583,790.14655,790.14655,799.011,783.69965
2025-12-28 21:18:58.584,1766974738584,1766974738.584,788.93774,790.14655,796.99634,784.90845
2025-12-28 21:18:58.584,1766974738584,1766974738.584,787.326,786.1172,799.011,783.69965
2025-12-28 21:18:58.585,1766974738585,1766974738.585,786.9231,787.326,790.54944,781.685
2025-12-28 21:18:58.585,1766974738585,1766974738.585,793.36993,792.5641,796.1905,794.17584
2025-12-28 21:18:58.585,1766974738585,1766974738.585,788.93774,791.75824,791.3553,783.2967
2025-12-28 21:18:58.586,1766974738586,1766974738.586,794.57874,792.5641,795.78754,792.96704
2025-12-28 21:18:58.586,1766974738586,1766974738.586,798.60803,792.96704,804.2491,794.57874
2025-12-28 21:18:58.586,1766974738586,1766974738.586,798.60803,800.6227,794.57874,794.9817
2025-12-28 21:18:58.586,1766974738586,1766974738.586,797.8022,799.81683,799.41394,790.14655
2025-12-28 21:18:58.587,1766974738587,1766974738.587,797.3993,790.9524,798.60803,794.9817
2025-12-28 21:18:58.655,1766974738655,1766974738.655,799.41394,789.34064,795.78754,796.1905
2025-12-28 21:18:58.655,1766974738655,1766974738.655,796.99634,786.9231,772.4176,792.5641
2025-12-28 21:18:58.656,1766974738656,1766974738.656,793.36993,775.2381,778.0586,788.1319
2025-12-28 21:18:58.656,1766974738656,1766974738.656,789.7436,786.9231,796.5934,784.90845
2025-12-28 21:18:58.656,1766974738656,1766974738.656,792.1612,797.8022,793.7729,784.5055
2025-12-28 21:18:58.657,1766974738657,1766974738.657,784.90845,785.7143,792.5641,786.1172
2025-12-28 21:18:58.657,1766974738657,1766974738.657,788.5348,789.34064,801.4286,788.1319
2025-12-28 21:18:58.657,1766974738657,1766974738.657,794.9817,797.8022,801.8315,795.38464
2025-12-28 21:18:58.657,1766974738657,1766974738.657,796.1905,798.60803,791.3553,791.3553
2025-12-28 21:18:58.658,1766974738658,1766974738.658,790.14655,784.90845,795.38464,796.1905
2025-12-28 21:18:58.658,1766974738658,1766974738.658,797.3993,792.1612,801.8315,805.4579
2025-12-28 21:18:58.658,1766974738658,1766974738.658,793.36993,799.011,800.2198,792.1612
2025-12-28 21:18:58.681,1766974738681,1766974738.681,784.90845,782.49084,791.75824,781.685
2025-12-28 21:18:58.681,1766974738681,1766974738.681,786.52014,774.0293,785.31134,786.9231
2025-12-28 21:18:58.682,1766974738682,1766974738.682,803.8461,797.3993,811.0989,813.91943
2025-12-28 21:18:58.682,1766974738682,1766974738.682,786.1172,790.14655,788.93774,786.1172
2025-12-28 21:18:58.682,1766974738682,1766974738.682,792.96704,785.7143,788.93774,791.75824
2025-12-28 21:18:58.682,1766974738682,1766974738.682,790.54944,790.9524,792.1612,796.5934
2025-12-28 21:18:58.683,1766974738683,1766974738.683,796.1905,790.9524,805.8608,801.02563
2025-12-28 21:18:58.683,1766974738683,1766974738.683,788.5348,784.10254,797.3993,790.9524
2025-12-28 21:18:58.683,1766974738683,1766974738.683,792.96704,788.5348,811.0989,800.2198
2025-12-28 21:18:58.684,1766974738684,1766974738.684,791.75824,787.72894,811.9048,803.8461
2025-12-28 21:18:58.684,1766974738684,1766974738.684,786.52014,785.31134,803.0403,800.2198
2025-12-28 21:18:58.684,1766974738684,1766974738.684,793.7729,788.5348,803.8461,799.41394
2025-12-28 21:18:58.745,1766974738745,1766974738.745,799.41394,794.57874,810.696,805.4579
2025-12-28 21:18:58.745,1766974738745,1766974738.745,802.6374,801.02563,815.5311,814.7253
2025-12-28 21:18:58.746,1766974738746,1766974738.746,805.4579,808.2784,818.7546,808.2784
2025-12-28 21:18:58.746,1766974738746,1766974738.746,813.91943,806.26373,820.3663,813.5165
2025-12-28 21:18:58.746,1766974738746,1766974738.746,811.9048,806.6667,821.5751,809.0842
2025-12-28 21:18:58.746,1766974738746,1766974738.746,805.4579,808.68134,816.7399,807.47253
2025-12-28 21:18:58.747,1766974738747,1766974738.747,808.2784,809.4872,810.293,809.4872
2025-12-28 21:18:58.747,1766974738747,1766974738.747,808.2784,801.02563,820.7692,808.2784
2025-12-28 21:18:58.747,1766974738747,1766974738.747,805.4579,805.05493,816.337,809.0842
2025-12-28 21:18:58.747,1766974738747,1766974738.747,797.8022,785.31134,809.0842,804.65204
2025-12-28 21:18:58.748,1766974738748,1766974738.748,810.696,810.696,830.0366,813.5165
2025-12-28 21:18:58.748,1766974738748,1766974738.748,804.65204,803.0403,813.5165,813.91943
2025-12-28 21:18:58.779,1766974738779,1766974738.779,787.326,793.7729,800.6227,783.2967
2025-12-28 21:18:58.779,1766974738779,1766974738.779,801.4286,798.60803,817.5458,798.20514
2025-12-28 21:18:58.781,1766974738781,1766974738.781,783.2967,790.14655,791.3553,777.25275
2025-12-28 21:18:58.781,1766974738781,1766974738.781,796.99634,790.54944,795.78754,779.2674
2025-12-28 21:18:58.782,1766974738782,1766974738.782,807.47253,799.81683,803.8461,786.52014
2025-12-28 21:18:58.782,1766974738782,1766974738.782,813.1135,797.3993,794.9817,785.31134
2025-12-28 21:18:58.782,1766974738782,1766974738.782,820.3663,799.81683,798.20514,785.7143
2025-12-28 21:18:58.782,1766974738782,1766974738.782,821.978,810.293,814.7253,805.4579
2025-12-28 21:18:58.783,1766974738783,1766974738.783,764.35895,791.3553,810.293,814.7253
2025-12-28 21:18:58.783,1766974738783,1766974738.783,772.4176,800.2198,821.978,824.3956
2025-12-28 21:18:58.783,1766974738783,1766974738.783,804.2491,800.6227,811.50183,817.9487
2025-12-28 21:18:58.783,1766974738783,1766974738.783,779.2674,792.96704,807.8755,815.5311
2025-12-28 21:18:58.834,1766974738834,1766974738.834,776.4469,799.011,813.1135,810.293
2025-12-28 21:18:58.835,1766974738835,1766974738.835,772.8205,788.1319,804.2491,788.93774
2025-12-28 21:18:58.835,1766974738835,1766974738.835,774.43225,788.1319,801.4286,785.31134
2025-12-28 21:18:58.835,1766974738835,1766974738.835,782.8938,794.9817,799.81683,791.3553
2025-12-28 21:18:58.835,1766974738835,1766974738.835,786.52014,797.8022,796.5934,790.14655
2025-12-28 21:18:58.836,1766974738836,1766974738.836,796.5934,796.99634,807.47253,795.38464
2025-12-28 21:18:58.836,1766974738836,1766974738.836,790.54944,801.02563,795.78754,789.34064
2025-12-28 21:18:58.836,1766974738836,1766974738.836,798.20514,803.8461,809.89014,794.9817
2025-12-28 21:18:58.837,1766974738837,1766974738.837,781.685,788.5348,778.0586,777.6557
2025-12-28 21:18:58.837,1766974738837,1766974738.837,791.3553,786.52014,796.1905,781.685
2025-12-28 21:18:58.837,1766974738837,1766974738.837,790.14655,789.7436,793.36993,793.36993
2025-12-28 21:18:58.837,1766974738837,1766974738.837,793.36993,787.326,796.1905,787.72894
2025-12-28 21:18:58.871,1766974738871,1766974738.871,782.49084,785.31134,789.7436,778.46155
2025-12-28 21:18:58.872,1766974738872,1766974738.872,788.5348,780.87915,807.8755,778.46155
2025-12-28 21:18:58.873,1766974738873,1766974738.873,784.90845,778.46155,792.96704,775.64105
2025-12-28 21:18:58.873,1766974738873,1766974738.873,783.69965,778.46155,792.96704,776.8498
2025-12-28 21:18:58.875,1766974738875,1766974738.875,779.67035,792.1612,799.81683,786.1172
2025-12-28 21:18:58.875,1766974738875,1766974738.875,786.1172,787.72894,804.65204,777.6557
2025-12-28 21:18:58.875,1766974738875,1766974738.875,782.8938,794.9817,798.60803,772.01465
2025-12-28 21:18:58.875,1766974738875,1766974738.875,782.0879,793.36993,796.1905,773.6264
2025-12-28 21:18:58.876,1766974738876,1766974738.876,782.49084,800.2198,794.17584,778.46155
2025-12-28 21:18:58.876,1766974738876,1766974738.876,780.4762,787.326,797.3993,786.52014
2025-12-28 21:18:58.876,1766974738876,1766974738.876,779.2674,789.34064,790.14655,777.25275
2025-12-28 21:18:58.877,1766974738877,1766974738.877,785.7143,805.05493,804.65204,780.07324
2025-12-28 21:18:58.913,1766974738913,1766974738.913,780.4762,791.3553,804.2491,776.04395
2025-12-28 21:18:58.913,1766974738913,1766974738.913,782.0879,784.90845,794.9817,776.4469
2025-12-28 21:18:58.914,1766974738914,1766974738.914,790.14655,801.02563,800.2198,790.9524
2025-12-28 21:18:58.914,1766974738914,1766974738.914,793.7729,797.8022,799.011,787.326
2025-12-28 21:18:58.914,1766974738914,1766974738.914,800.6227,805.8608,813.91943,796.99634
2025-12-28 21:18:58.914,1766974738914,1766974738.914,783.2967,790.14655,795.78754,784.90845
2025-12-28 21:18:58.915,1766974738915,1766974738.915,788.1319,799.011,807.0696,789.34064
2025-12-28 21:18:58.915,1766974738915,1766974738.915,782.8938,803.44324,802.6374,790.9524
2025-12-28 21:18:58.915,1766974738915,1766974738.915,781.28204,794.57874,804.2491,789.34064
2025-12-28 21:18:58.915,1766974738915,1766974738.915,783.2967,789.34064,809.0842,785.31134
2025-12-28 21:18:58.916,1766974738916,1766974738.916,792.96704,797.8022,804.65204,793.7729
2025-12-28 21:18:58.916,1766974738916,1766974738.916,794.57874,797.3993,801.02563,795.78754
2025-12-28 21:18:59.013,1766974739013,1766974739.013,799.41394,810.696,811.50183,796.5934
2025-12-28 21:18:59.014,1766974739014,1766974739.014,801.02563,811.9048,820.3663,797.8022
2025-12-28 21:18:59.014,1766974739014,1766974739.014,807.0696,800.6227,820.3663,804.65204
2025-12-28 21:18:59.015,1766974739015,1766974739.015,807.47253,811.50183,808.2784,808.2784
2025-12-28 21:18:59.015,1766974739015,1766974739.015,813.91943,825.6044,809.89014,814.3223
2025-12-28 21:18:59.016,1766974739016,1766974739.016,831.2454,836.4835,836.08057,830.0366
2025-12-28 21:18:59.018,1766974739018,1766974739.018,818.7546,826.8132,822.7839,816.7399
2025-12-28 21:18:59.019,1766974739019,1766974739.019,794.9817,813.1135,792.5641,786.52014
2025-12-28 21:18:59.019,1766974739019,1766974739.019,784.5055,804.65204,791.75824,777.25275
2025-12-28 21:18:59.019,1766974739019,1766974739.019,788.5348,804.65204,801.8315,785.7143
2025-12-28 21:18:59.019,1766974739019,1766974739.019,796.99634,807.47253,801.02563,793.36993
2025-12-28 21:18:59.020,1766974739020,1766974739.02,805.8608,811.0989,804.65204,805.05493
2025-12-28 21:18:59.065,1766974739065,1766974739.065,802.6374,817.5458,809.4872,803.44324
2025-12-28 21:18:59.065,1766974739065,1766974739.065,798.20514,810.293,816.337,802.6374
2025-12-28 21:18:59.066,1766974739066,1766974739.066,815.5311,821.978,811.9048,810.696
2025-12-28 21:18:59.066,1766974739066,1766974739.066,821.5751,820.7692,815.12823,814.3223
2025-12-28 21:18:59.066,1766974739066,1766974739.066,803.8461,815.12823,815.9341,807.47253
2025-12-28 21:18:59.067,1766974739067,1766974739.067,805.8608,814.3223,809.4872,804.2491
2025-12-28 21:18:59.067,1766974739067,1766974739.067,798.20514,804.2491,802.23444,799.81683
2025-12-28 21:18:59.067,1766974739067,1766974739.067,815.9341,817.5458,823.5897,814.7253
2025-12-28 21:18:59.067,1766974739067,1766974739.067,818.3516,824.7985,828.4249,819.15753
2025-12-28 21:18:59.068,1766974739068,1766974739.068,805.05493,814.3223,811.50183,814.3223
2025-12-28 21:18:59.068,1766974739068,1766974739.068,802.6374,808.68134,811.9048,817.5458
2025-12-28 21:18:59.068,1766974739068,1766974739.068,808.68134,807.0696,818.3516,812.3077
2025-12-28 21:18:59.069,1766974739069,1766974739.069,804.2491,805.8608,811.50183,803.0403
2025-12-28 21:18:59.069,1766974739069,1766974739.069,811.0989,801.4286,815.12823,804.65204
2025-12-28 21:18:59.069,1766974739069,1766974739.069,809.4872,804.2491,811.0989,805.4579
2025-12-28 21:18:59.070,1766974739070,1766974739.07,801.8315,799.011,810.696,799.011
2025-12-28 21:18:59.070,1766974739070,1766974739.07,803.8461,800.2198,806.26373,799.81683
2025-12-28 21:18:59.070,1766974739070,1766974739.07,805.05493,809.0842,809.4872,806.6667
2025-12-28 21:18:59.070,1766974739070,1766974739.07,791.75824,807.8755,807.47253,800.2198
2025-12-28 21:18:59.071,1766974739071,1766974739.071,790.9524,809.4872,801.4286,793.36993
2025-12-28 21:18:59.072,1766974739072,1766974739.072,797.3993,807.0696,803.44324,796.1905
2025-12-28 21:18:59.073,1766974739073,1766974739.073,794.17584,792.96704,802.6374,793.7729
2025-12-28 21:18:59.073,1766974739073,1766974739.073,789.34064,790.14655,804.65204,790.54944
2025-12-28 21:18:59.073,1766974739073,1766974739.073,794.9817,793.36993,798.60803,796.1905
2025-12-28 21:18:59.096,1766974739096,1766974739.096,792.5641,792.1612,809.4872,795.38464
2025-12-28 21:18:59.096,1766974739096,1766974739.096,788.93774,786.1172,798.20514,791.75824
2025-12-28 21:18:59.097,1766974739097,1766974739.097,780.4762,793.7729,792.1612,778.86444
2025-12-28 21:18:59.097,1766974739097,1766974739.097,781.685,798.20514,761.53845,776.4469
2025-12-28 21:18:59.098,1766974739098,1766974739.098,798.60803,808.68134,797.8022,799.011
2025-12-28 21:18:59.098,1766974739098,1766974739.098,802.6374,803.0403,827.619,800.6227
2025-12-28 21:18:59.098,1766974739098,1766974739.098,797.3993,797.8022,820.7692,796.5934
2025-12-28 21:18:59.098,1766974739098,1766974739.098,785.7143,795.38464,813.5165,794.9817
2025-12-28 21:18:59.099,1766974739099,1766974739.099,777.6557,783.2967,792.96704,786.1172
2025-12-28 21:18:59.099,1766974739099,1766974739.099,776.04395,785.7143,791.3553,788.1319
2025-12-28 21:18:59.099,1766974739099,1766974739.099,776.04395,799.011,801.8315,785.7143
2025-12-28 21:18:59.099,1766974739099,1766974739.099,774.43225,796.99634,800.6227,778.0586
2025-12-28 21:18:59.190,1766974739190,1766974739.19,778.86444,791.3553,804.65204,785.31134
2025-12-28 21:18:59.191,1766974739191,1766974739.191,780.87915,792.5641,803.8461,790.14655
2025-12-28 21:18:59.191,1766974739191,1766974739.191,782.8938,799.81683,800.6227,786.52014
2025-12-28 21:18:59.192,1766974739192,1766974739.192,786.9231,807.47253,808.68134,790.9524
2025-12-28 21:18:59.192,1766974739192,1766974739.192,785.7143,802.6374,811.9048,792.96704
2025-12-28 21:18:59.192,1766974739192,1766974739.192,785.31134,797.8022,794.57874,784.5055
2025-12-28 21:18:59.193,1766974739193,1766974739.193,790.9524,797.8022,802.23444,786.9231
2025-12-28 21:18:59.193,1766974739193,1766974739.193,788.5348,795.78754,811.50183,786.52014
2025-12-28 21:18:59.194,1766974739194,1766974739.194,782.49084,797.8022,805.05493,788.93774
2025-12-28 21:18:59.194,1766974739194,1766974739.194,787.72894,800.2198,802.23444,795.78754
2025-12-28 21:18:59.196,1766974739196,1766974739.196,796.99634,800.6227,809.0842,800.2198
2025-12-28 21:18:59.196,1766974739196,1766974739.196,797.8022,797.8022,808.68134,800.2198
2025-12-28 21:18:59.199,1766974739199,1766974739.199,788.1319,801.8315,799.41394,788.5348
2025-12-28 21:18:59.199,1766974739199,1766974739.199,791.75824,800.2198,801.4286,794.57874
2025-12-28 21:18:59.199,1766974739199,1766974739.199,795.38464,799.011,799.81683,795.78754
2025-12-28 21:18:59.200,1766974739200,1766974739.2,789.7436,799.011,796.5934,784.5055
2025-12-28 21:18:59.200,1766974739200,1766974739.2,783.69965,796.5934,794.57874,780.07324
2025-12-28 21:18:59.200,1766974739200,1766974739.2,784.10254,789.34064,793.36993,784.10254
2025-12-28 21:18:59.200,1766974739200,1766974739.2,793.7729,793.36993,799.81683,793.36993
2025-12-28 21:18:59.201,1766974739201,1766974739.201,796.99634,791.75824,796.99634,798.60803
2025-12-28 21:18:59.201,1766974739201,1766974739.201,796.1905,801.02563,802.6374,800.6227
2025-12-28 21:18:59.201,1766974739201,1766974739.201,798.20514,797.8022,800.2198,796.99634
2025-12-28 21:18:59.202,1766974739202,1766974739.202,796.99634,803.44324,806.26373,796.5934
2025-12-28 21:18:59.202,1766974739202,1766974739.202,797.3993,799.81683,805.4579,796.1905
2025-12-28 21:18:59.245,1766974739245,1766974739.245,793.7729,801.4286,803.44324,801.4286
2025-12-28 21:18:59.245,1766974739245,1766974739.245,791.3553,803.0403,799.41394,795.38464
2025-12-28 21:18:59.245,1766974739245,1766974739.245,793.7729,799.41394,799.41394,792.96704
2025-12-28 21:18:59.246,1766974739246,1766974739.246,794.9817,795.78754,801.02563,789.34064
2025-12-28 21:18:59.246,1766974739246,1766974739.246,788.93774,802.6374,796.99634,780.87915
2025-12-28 21:18:59.246,1766974739246,1766974739.246,781.28204,799.41394,797.8022,777.6557
2025-12-28 21:18:59.247,1766974739247,1766974739.247,791.3553,796.1905,801.8315,781.685
2025-12-28 21:18:59.247,1766974739247,1766974739.247,792.96704,797.3993,805.8608,785.7143
2025-12-28 21:18:59.247,1766974739247,1766974739.247,786.9231,798.20514,805.8608,782.8938
2025-12-28 21:18:59.247,1766974739247,1766974739.247,793.7729,801.02563,808.2784,790.54944
2025-12-28 21:18:59.248,1766974739248,1766974739.248,785.7143,803.8461,801.8315,782.0879
2025-12-28 21:18:59.248,1766974739248,1766974739.248,787.72894,804.2491,803.8461,781.28204
2025-12-28 21:18:59.299,1766974739299,1766974739.299,797.3993,804.2491,805.4579,789.34064
2025-12-28 21:18:59.299,1766974739299,1766974739.299,798.20514,806.6667,805.05493,795.38464
2025-12-28 21:18:59.300,1766974739300,1766974739.3,794.9817,801.02563,800.6227,795.78754
2025-12-28 21:18:59.300,1766974739300,1766974739.3,797.8022,799.41394,793.7729,794.9817
2025-12-28 21:18:59.300,1766974739300,1766974739.3,799.81683,795.38464,794.9817,788.1319
2025-12-28 21:18:59.301,1766974739301,1766974739.301,789.34064,796.5934,794.9817,782.0879
2025-12-28 21:18:59.301,1766974739301,1766974739.301,792.5641,798.60803,799.41394,788.1319
2025-12-28 21:18:59.301,1766974739301,1766974739.301,792.5641,797.3993,803.0403,787.326
2025-12-28 21:18:59.301,1766974739301,1766974739.301,786.1172,795.78754,802.6374,791.3553
2025-12-28 21:18:59.301,1766974739301,1766974739.301,791.3553,792.5641,801.4286,792.96704
2025-12-28 21:18:59.302,1766974739302,1766974739.302,787.72894,793.36993,797.8022,788.5348
2025-12-28 21:18:59.302,1766974739302,1766974739.302,786.1172,798.60803,800.2198,795.78754
2025-12-28 21:18:59.362,1766974739362,1766974739.362,787.326,797.3993,792.5641,789.34064
2025-12-28 21:18:59.363,1766974739363,1766974739.363,775.64105,786.9231,800.6227,785.7143
2025-12-28 21:18:59.363,1766974739363,1766974739.363,786.1172,798.20514,799.81683,790.9524
2025-12-28 21:18:59.363,1766974739363,1766974739.363,792.96704,800.6227,793.36993,791.3553
2025-12-28 21:18:59.364,1766974739364,1766974739.364,776.8498,783.69965,794.57874,782.49084
2025-12-28 21:18:59.364,1766974739364,1766974739.364,777.6557,784.5055,792.5641,779.2674
2025-12-28 21:18:59.364,1766974739364,1766974739.364,777.25275,789.34064,800.6227,788.93774
2025-12-28 21:18:59.365,1766974739365,1766974739.365,778.0586,794.57874,800.2198,793.36993
2025-12-28 21:18:59.365,1766974739365,1766974739.365,778.86444,794.57874,793.36993,782.0879
2025-12-28 21:18:59.365,1766974739365,1766974739.365,779.67035,793.36993,794.9817,781.685
2025-12-28 21:18:59.365,1766974739365,1766974739.365,776.4469,794.9817,794.17584,781.28204
2025-12-28 21:18:59.366,1766974739366,1766974739.366,777.25275,800.2198,790.54944,781.28204
2025-12-28 21:18:59.400,1766974739400,1766974739.4,787.72894,803.8461,796.99634,790.9524
2025-12-28 21:18:59.401,1766974739401,1766974739.401,796.5934,798.20514,802.23444,797.8022
2025-12-28 21:18:59.403,1766974739403,1766974739.403,790.9524,798.60803,799.41394,796.5934
2025-12-28 21:18:59.404,1766974739404,1766974739.404,786.52014,801.8315,797.3993,795.78754
2025-12-28 21:18:59.404,1766974739404,1766974739.404,788.93774,796.99634,794.57874,792.5641
2025-12-28 21:18:59.405,1766974739405,1766974739.405,790.9524,792.5641,793.36993,788.93774
2025-12-28 21:18:59.405,1766974739405,1766974739.405,795.38464,796.5934,796.1905,790.54944
2025-12-28 21:18:59.405,1766974739405,1766974739.405,792.1612,798.20514,797.8022,790.14655
2025-12-28 21:18:59.406,1766974739406,1766974739.406,788.5348,795.78754,787.72894,780.4762
2025-12-28 21:18:59.406,1766974739406,1766974739.406,786.9231,792.5641,793.36993,781.685
2025-12-28 21:18:59.407,1766974739407,1766974739.407,789.34064,799.41394,796.5934,782.49084
2025-12-28 21:18:59.407,1766974739407,1766974739.407,787.326,802.23444,792.5641,784.90845
2025-12-28 21:18:59.447,1766974739447,1766974739.447,793.7729,795.78754,793.36993,781.685
2025-12-28 21:18:59.448,1766974739448,1766974739.448,798.60803,795.78754,800.2198,789.7436
2025-12-28 21:18:59.448,1766974739448,1766974739.448,804.2491,805.8608,801.8315,797.3993
2025-12-28 21:18:59.449,1766974739449,1766974739.449,801.8315,805.05493,800.2198,784.5055
2025-12-28 21:18:59.449,1766974739449,1766974739.449,799.011,798.60803,803.0403,776.04395
2025-12-28 21:18:59.450,1766974739450,1766974739.45,806.6667,794.9817,799.011,778.46155
2025-12-28 21:18:59.450,1766974739450,1766974739.45,814.3223,799.011,796.99634,778.46155
2025-12-28 21:18:59.450,1766974739450,1766974739.45,809.4872,807.0696,803.8461,785.7143
2025-12-28 21:18:59.450,1766974739450,1766974739.45,796.99634,798.20514,806.6667,800.2198
2025-12-28 21:18:59.451,1766974739451,1766974739.451,768.7912,796.5934,803.0403,811.50183
2025-12-28 21:18:59.451,1766974739451,1766974739.451,776.04395,799.41394,808.2784,823.9927
2025-12-28 21:18:59.451,1766974739451,1766974739.451,785.31134,794.57874,807.47253,819.5604
2025-12-28 21:18:59.485,1766974739485,1766974739.485,765.9707,801.8315,802.23444,801.02563
2025-12-28 21:18:59.485,1766974739485,1766974739.485,767.98535,799.41394,799.41394,801.02563
2025-12-28 21:18:59.486,1766974739486,1766974739.486,779.67035,794.17584,798.20514,797.3993
2025-12-28 21:18:59.486,1766974739486,1766974739.486,780.87915,791.3553,801.02563,785.7143
2025-12-28 21:18:59.487,1766974739487,1766974739.487,783.69965,788.93774,803.8461,786.9231
2025-12-28 21:18:59.488,1766974739488,1766974739.488,793.36993,799.81683,805.4579,790.14655
2025-12-28 21:18:59.488,1766974739488,1766974739.488,797.8022,810.293,805.4579,790.14655
2025-12-28 21:18:59.488,1766974739488,1766974739.488,799.81683,808.2784,810.696,791.75824
2025-12-28 21:18:59.489,1766974739489,1766974739.489,798.20514,805.05493,807.0696,789.34064
2025-12-28 21:18:59.489,1766974739489,1766974739.489,793.7729,806.26373,803.8461,795.78754
2025-12-28 21:18:59.489,1766974739489,1766974739.489,794.9817,798.60803,808.2784,788.93774
2025-12-28 21:18:59.489,1766974739489,1766974739.489,794.9817,803.0403,806.26373,796.5934
2025-12-28 21:18:59.514,1766974739514,1766974739.514,797.8022,801.4286,807.47253,789.7436
2025-12-28 21:18:59.515,1766974739515,1766974739.515,789.7436,797.8022,805.4579,787.72894
2025-12-28 21:18:59.515,1766974739515,1766974739.515,790.54944,805.05493,797.8022,788.1319
2025-12-28 21:18:59.515,1766974739515,1766974739.515,795.78754,809.0842,795.78754,792.5641
2025-12-28 21:18:59.516,1766974739516,1766974739.516,801.8315,811.9048,813.1135,794.57874
2025-12-28 21:18:59.516,1766974739516,1766974739.516,802.23444,810.293,817.9487,794.57874
2025-12-28 21:18:59.516,1766974739516,1766974739.516,797.8022,807.47253,813.5165,792.5641
2025-12-28 21:18:59.517,1766974739517,1766974739.517,799.41394,807.47253,811.0989,797.3993
2025-12-28 21:18:59.517,1766974739517,1766974739.517,808.68134,805.4579,811.0989,807.47253
2025-12-28 21:18:59.517,1766974739517,1766974739.517,810.293,810.293,809.89014,805.05493
2025-12-28 21:18:59.517,1766974739517,1766974739.517,811.0989,817.1429,804.2491,805.8608
2025-12-28 21:18:59.518,1766974739518,1766974739.518,813.5165,818.7546,815.9341,810.293
2025-12-28 21:18:59.584,1766974739584,1766974739.584,803.0403,811.9048,816.337,800.6227
2025-12-28 21:18:59.585,1766974739585,1766974739.585,792.96704,802.23444,801.8315,787.72894
2025-12-28 21:18:59.585,1766974739585,1766974739.585,793.7729,797.8022,800.2198,790.14655
2025-12-28 21:18:59.585,1766974739585,1766974739.585,793.36993,804.65204,805.4579,789.7436
2025-12-28 21:18:59.586,1766974739586,1766974739.586,788.93774,807.8755,793.7729,783.2967
2025-12-28 21:18:59.586,1766974739586,1766974739.586,792.5641,802.6374,799.011,786.9231
2025-12-28 21:18:59.588,1766974739588,1766974739.588,787.72894,810.293,792.5641,780.87915
2025-12-28 21:18:59.588,1766974739588,1766974739.588,791.75824,807.8755,798.20514,786.9231
2025-12-28 21:18:59.588,1766974739588,1766974739.588,792.1612,798.60803,796.1905,790.14655
2025-12-28 21:18:59.589,1766974739589,1766974739.589,789.7436,793.36993,794.57874,782.49084
2025-12-28 21:18:59.589,1766974739589,1766974739.589,786.1172,794.9817,801.8315,782.8938
2025-12-28 21:18:59.589,1766974739589,1766974739.589,784.90845,797.3993,809.4872,790.54944
2025-12-28 21:18:59.626,1766974739626,1766974739.626,790.14655,801.4286,803.0403,792.5641
2025-12-28 21:18:59.626,1766974739626,1766974739.626,798.60803,805.8608,808.2784,795.78754
2025-12-28 21:18:59.626,1766974739626,1766974739.626,802.6374,801.02563,821.5751,799.81683
2025-12-28 21:18:59.627,1766974739627,1766974739.627,799.81683,796.5934,812.3077,793.36993
2025-12-28 21:18:59.627,1766974739627,1766974739.627,805.4579,803.8461,814.7253,801.8315
2025-12-28 21:18:59.627,1766974739627,1766974739.627,798.60803,799.81683,815.12823,795.38464
2025-12-28 21:18:59.627,1766974739627,1766974739.627,801.8315,807.47253,812.71063,801.4286
2025-12-28 21:18:59.628,1766974739628,1766974739.628,794.57874,793.36993,810.696,800.2198
2025-12-28 21:18:59.628,1766974739628,1766974739.628,795.38464,791.75824,804.2491,803.44324
2025-12-28 21:18:59.628,1766974739628,1766974739.628,799.41394,791.3553,801.02563,795.38464
2025-12-28 21:18:59.628,1766974739628,1766974739.628,801.4286,798.20514,804.2491,799.81683
2025-12-28 21:18:59.629,1766974739629,1766974739.629,798.60803,799.41394,805.8608,802.23444
2025-12-28 21:18:59.658,1766974739658,1766974739.658,799.011,802.23444,804.65204,799.81683
2025-12-28 21:18:59.659,1766974739659,1766974739.659,811.0989,803.0403,811.50183,810.696
2025-12-28 21:18:59.659,1766974739659,1766974739.659,811.9048,807.47253,807.47253,808.68134
2025-12-28 21:18:59.659,1766974739659,1766974739.659,817.5458,806.26373,813.91943,813.1135
2025-12-28 21:18:59.660,1766974739660,1766974739.66,805.8608,799.011,809.89014,811.50183
2025-12-28 21:18:59.660,1766974739660,1766974739.66,800.6227,799.41394,804.2491,806.26373
2025-12-28 21:18:59.660,1766974739660,1766974739.66,797.3993,797.8022,799.81683,801.8315
2025-12-28 21:18:59.660,1766974739660,1766974739.66,796.5934,788.93774,803.8461,807.47253
2025-12-28 21:18:59.662,1766974739662,1766974739.662,798.20514,793.7729,807.8755,810.696
2025-12-28 21:18:59.662,1766974739662,1766974739.662,805.05493,799.41394,806.6667,809.89014
2025-12-28 21:18:59.662,1766974739662,1766974739.662,804.65204,792.96704,803.44324,801.8315
2025-12-28 21:18:59.663,1766974739663,1766974739.663,792.1612,790.54944,799.81683,790.14655
2025-12-28 21:18:59.713,1766974739713,1766974739.713,788.93774,798.60803,801.8315,784.10254
2025-12-28 21:18:59.714,1766974739714,1766974739.714,794.17584,799.81683,801.4286,782.8938
2025-12-28 21:18:59.714,1766974739714,1766974739.714,792.1612,788.1319,801.4286,784.10254
2025-12-28 21:18:59.715,1766974739715,1766974739.715,784.90845,793.36993,801.8315,779.67035
2025-12-28 21:18:59.715,1766974739715,1766974739.715,786.9231,803.0403,799.41394,780.87915
2025-12-28 21:18:59.715,1766974739715,1766974739.715,795.38464,798.60803,799.41394,793.7729
2025-12-28 21:18:59.716,1766974739716,1766974739.716,802.6374,798.60803,787.72894,799.011
2025-12-28 21:18:59.716,1766974739716,1766974739.716,795.78754,790.9524,795.38464,790.54944
2025-12-28 21:18:59.716,1766974739716,1766974739.716,801.02563,798.20514,795.38464,802.6374
2025-12-28 21:18:59.717,1766974739717,1766974739.717,797.3993,794.17584,803.0403,794.57874
2025-12-28 21:18:59.717,1766974739717,1766974739.717,788.1319,784.10254,799.41394,786.52014
2025-12-28 21:18:59.718,1766974739718,1766974739.718,805.4579,802.6374,803.8461,801.02563
2025-12-28 21:18:59.757,1766974739757,1766974739.757,799.81683,798.60803,790.54944,796.1905
2025-12-28 21:18:59.758,1766974739758,1766974739.758,797.8022,794.17584,794.57874,797.3993
2025-12-28 21:18:59.758,1766974739758,1766974739.758,794.57874,790.9524,794.9817,801.4286
2025-12-28 21:18:59.759,1766974739759,1766974739.759,791.75824,796.5934,796.5934,798.60803
2025-12-28 21:18:59.759,1766974739759,1766974739.759,786.52014,794.17584,800.6227,790.54944
2025-12-28 21:18:59.759,1766974739759,1766974739.759,778.86444,783.69965,792.5641,782.0879
2025-12-28 21:18:59.760,1766974739760,1766974739.76,781.28204,785.7143,792.1612,788.93774
2025-12-28 21:18:59.760,1766974739760,1766974739.76,787.326,788.93774,796.5934,796.5934
2025-12-28 21:18:59.761,1766974739761,1766974739.761,781.28204,782.0879,803.8461,786.9231
2025-12-28 21:18:59.761,1766974739761,1766974739.761,785.31134,784.10254,801.4286,790.9524
2025-12-28 21:18:59.763,1766974739763,1766974739.763,780.87915,779.67035,796.99634,792.5641
2025-12-28 21:18:59.763,1766974739763,1766974739.763,791.3553,784.5055,795.38464,795.38464
2025-12-28 21:18:59.801,1766974739801,1766974739.801,789.34064,789.34064,799.011,791.75824
2025-12-28 21:18:59.801,1766974739801,1766974739.801,779.2674,786.9231,793.7729,784.10254
2025-12-28 21:18:59.802,1766974739802,1766974739.802,781.685,796.5934,791.3553,788.1319
2025-12-28 21:18:59.802,1766974739802,1766974739.802,783.2967,795.38464,794.17584,786.52014
2025-12-28 21:18:59.802,1766974739802,1766974739.802,784.10254,785.7143,792.5641,785.7143
2025-12-28 21:18:59.802,1766974739802,1766974739.802,786.52014,786.52014,787.72894,794.57874
2025-12-28 21:18:59.803,1766974739803,1766974739.803,790.9524,784.90845,805.05493,797.3993
2025-12-28 21:18:59.803,1766974739803,1766974739.803,784.5055,784.10254,796.1905,792.1612
2025-12-28 21:18:59.803,1766974739803,1766974739.803,772.8205,781.28204,796.99634,782.49084
2025-12-28 21:18:59.803,1766974739803,1766974739.803,779.67035,784.5055,791.75824,788.1319
2025-12-28 21:18:59.804,1766974739804,1766974739.804,782.8938,786.9231,807.47253,788.5348
2025-12-28 21:18:59.804,1766974739804,1766974739.804,784.10254,800.2198,804.2491,787.72894
2025-12-28 21:18:59.868,1766974739868,1766974739.868,793.7729,792.96704,803.44324,793.36993
2025-12-28 21:18:59.868,1766974739868,1766974739.868,784.90845,781.685,794.9817,785.31134
2025-12-28 21:18:59.869,1766974739869,1766974739.869,782.49084,790.9524,806.6667,781.28204
2025-12-28 21:18:59.869,1766974739869,1766974739.869,794.9817,796.5934,819.9634,789.34064
2025-12-28 21:18:59.869,1766974739869,1766974739.869,798.20514,792.5641,813.91943,789.34064
2025-12-28 21:18:59.869,1766974739869,1766974739.869,784.5055,785.31134,800.6227,779.2674
2025-12-28 21:18:59.870,1766974739870,1766974739.87,795.38464,787.72894,793.36993,798.60803
2025-12-28 21:18:59.870,1766974739870,1766974739.87,791.3553,790.14655,796.5934,789.34064
2025-12-28 21:18:59.870,1766974739870,1766974739.87,776.04395,779.2674,794.57874,770.40295
2025-12-28 21:18:59.870,1766974739870,1766974739.87,779.67035,786.1172,798.60803,774.83514
2025-12-28 21:18:59.871,1766974739871,1766974739.871,789.34064,794.17584,798.20514,794.57874
2025-12-28 21:18:59.871,1766974739871,1766974739.871,784.5055,795.38464,793.7729,786.1172
2025-12-28 21:18:59.900,1766974739900,1766974739.9,781.28204,787.326,796.1905,785.31134
2025-12-28 21:18:59.900,1766974739900,1766974739.9,783.2967,791.3553,805.4579,788.1319
2025-12-28 21:18:59.901,1766974739901,1766974739.901,784.10254,790.54944,792.96704,781.685
2025-12-28 21:18:59.901,1766974739901,1766974739.901,784.5055,786.9231,792.96704,784.90845
2025-12-28 21:18:59.901,1766974739901,1766974739.901,792.1612,803.8461,809.0842,793.7729
2025-12-28 21:18:59.901,1766974739901,1766974739.901,795.78754,798.20514,805.05493,796.99634
2025-12-28 21:18:59.902,1766974739902,1766974739.902,785.7143,791.75824,794.9817,778.46155
2025-12-28 21:18:59.902,1766974739902,1766974739.902,776.4469,788.93774,795.38464,775.64105
2025-12-28 21:18:59.902,1766974739902,1766974739.902,779.2674,788.1319,797.8022,790.9524
2025-12-28 21:18:59.902,1766974739902,1766974739.902,785.31134,794.9817,791.3553,791.3553
2025-12-28 21:18:59.902,1766974739902,1766974739.902,788.93774,795.78754,795.38464,784.90845
2025-12-28 21:18:59.903,1766974739903,1766974739.903,794.57874,792.96704,802.23444,788.5348
2025-12-28 21:18:59.955,1766974739955,1766974739.955,787.326,791.75824,800.2198,786.1172
2025-12-28 21:18:59.956,1766974739956,1766974739.956,794.57874,803.44324,799.41394,789.7436
2025-12-28 21:18:59.956,1766974739956,1766974739.956,798.60803,799.81683,802.23444,795.78754
2025-12-28 21:18:59.956,1766974739956,1766974739.956,785.7143,788.1319,800.6227,788.93774
2025-12-28 21:18:59.956,1766974739956,1766974739.956,799.41394,792.96704,807.47253,795.38464
2025-12-28 21:18:59.957,1766974739957,1766974739.957,790.14655,794.9817,804.2491,792.1612
2025-12-28 21:18:59.957,1766974739957,1766974739.957,800.6227,800.6227,811.9048,792.96704
2025-12-28 21:18:59.957,1766974739957,1766974739.957,796.5934,794.17584,813.1135,794.57874
2025-12-28 21:18:59.957,1766974739957,1766974739.957,790.54944,792.5641,805.8608,790.9524
2025-12-28 21:18:59.958,1766974739958,1766974739.958,795.38464,794.17584,802.23444,789.7436
2025-12-28 21:18:59.958,1766974739958,1766974739.958,788.1319,797.8022,796.1905,788.1319
2025-12-28 21:18:59.958,1766974739958,1766974739.958,793.36993,795.38464,792.5641,785.7143
2025-12-28 21:18:59.987,1766974739987,1766974739.987,789.7436,797.3993,807.8755,793.7729
2025-12-28 21:18:59.988,1766974739988,1766974739.988,786.1172,800.2198,807.0696,792.5641
2025-12-28 21:18:59.990,1766974739990,1766974739.99,784.90845,795.78754,805.05493,792.5641
2025-12-28 21:18:59.990,1766974739990,1766974739.99,785.7143,794.57874,797.3993,793.36993
2025-12-28 21:18:59.990,1766974739990,1766974739.99,781.28204,794.17584,793.36993,789.7436
2025-12-28 21:18:59.990,1766974739990,1766974739.99,772.8205,789.34064,798.20514,789.7436
2025-12-28 21:18:59.991,1766974739991,1766974739.991,775.64105,788.5348,801.4286,791.75824
2025-12-28 21:18:59.991,1766974739991,1766974739.991,782.8938,789.34064,797.8022,792.1612
2025-12-28 21:18:59.991,1766974739991,1766974739.991,787.72894,792.1612,798.20514,790.14655
2025-12-28 21:18:59.991,1766974739991,1766974739.991,786.9231,796.5934,801.8315,786.52014
2025-12-28 21:18:59.992,1766974739992,1766974739.992,787.72894,798.60803,801.02563,790.54944
2025-12-28 21:18:59.992,1766974739992,1766974739.992,789.34064,801.4286,804.2491,789.34064
2025-12-28 21:19:00.051,1766974740051,1766974740.051,782.49084,800.6227,797.3993,783.2967
2025-12-28 21:19:00.051,1766974740051,1766974740.051,783.69965,800.6227,802.23444,780.87915
2025-12-28 21:19:00.052,1766974740052,1766974740.052,787.326,799.011,807.47253,784.5055
2025-12-28 21:19:00.052,1766974740052,1766974740.052,788.1319,807.0696,811.50183,791.75824
2025-12-28 21:19:00.052,1766974740052,1766974740.052,788.93774,799.011,799.41394,794.57874
2025-12-28 21:19:00.052,1766974740052,1766974740.052,794.17584,799.81683,806.26373,797.3993
2025-12-28 21:19:00.053,1766974740053,1766974740.053,796.1905,809.4872,820.7692,796.1905
2025-12-28 21:19:00.053,1766974740053,1766974740.053,801.4286,808.68134,819.15753,801.4286
2025-12-28 21:19:00.053,1766974740053,1766974740.053,795.78754,807.0696,812.71063,801.8315
2025-12-28 21:19:00.053,1766974740053,1766974740.053,788.5348,811.0989,807.47253,798.60803
2025-12-28 21:19:00.054,1766974740054,1766974740.054,796.5934,808.2784,827.2161,798.20514
2025-12-28 21:19:00.054,1766974740054,1766974740.054,806.26373,815.9341,821.1722,804.65204
2025-12-28 21:19:00.083,1766974740083,1766974740.083,815.12823,821.5751,819.15753,803.0403
2025-12-28 21:19:00.083,1766974740083,1766974740.083,813.5165,817.1429,821.1722,794.57874
2025-12-28 21:19:00.084,1766974740084,1766974740.084,814.3223,816.7399,820.7692,797.3993
2025-12-28 21:19:00.084,1766974740084,1766974740.084,825.2015,826.0073,817.9487,806.26373
2025-12-28 21:19:00.086,1766974740086,1766974740.086,789.7436,805.8608,834.0659,833.2601
2025-12-28 21:19:00.086,1766974740086,1766974740.086,796.1905,808.68134,828.8278,824.7985
2025-12-28 21:19:00.086,1766974740086,1766974740.086,825.2015,829.6337,815.5311,815.12823
2025-12-28 21:19:00.086,1766974740086,1766974740.086,812.71063,817.1429,817.1429,819.9634
2025-12-28 21:19:00.087,1766974740087,1766974740.087,790.14655,800.2198,824.7985,826.8132
2025-12-28 21:19:00.087,1766974740087,1766974740.087,796.1905,807.8755,817.1429,821.978
2025-12-28 21:19:00.087,1766974740087,1766974740.087,796.5934,815.5311,817.9487,825.2015
2025-12-28 21:19:00.087,1766974740087,1766974740.087,796.99634,817.9487,823.9927,819.5604
2025-12-28 21:19:00.153,1766974740153,1766974740.153,806.26373,818.3516,824.7985,817.1429
2025-12-28 21:19:00.154,1766974740154,1766974740.154,804.2491,827.2161,819.9634,803.8461
2025-12-28 21:19:00.154,1766974740154,1766974740.154,809.89014,827.2161,821.5751,813.1135
2025-12-28 21:19:00.154,1766974740154,1766974740.154,813.1135,821.978,821.5751,817.5458
2025-12-28 21:19:00.155,1766974740155,1766974740.155,807.8755,827.2161,820.3663,804.2491
2025-12-28 21:19:00.155,1766974740155,1766974740.155,808.68134,826.0073,815.9341,807.47253
2025-12-28 21:19:00.155,1766974740155,1766974740.155,808.68134,833.2601,816.7399,808.68134
2025-12-28 21:19:00.155,1766974740155,1766974740.155,812.71063,830.0366,826.8132,809.89014
2025-12-28 21:19:00.156,1766974740156,1766974740.156,809.0842,828.022,808.2784,805.4579
2025-12-28 21:19:00.156,1766974740156,1766974740.156,799.41394,823.1868,817.9487,797.3993
2025-12-28 21:19:00.156,1766974740156,1766974740.156,811.0989,814.3223,813.5165,803.0403
2025-12-28 21:19:00.156,1766974740156,1766974740.156,807.47253,815.5311,789.7436,797.3993
2025-12-28 21:19:00.186,1766974740186,1766974740.186,792.5641,807.47253,807.47253,784.90845
2025-12-28 21:19:00.186,1766974740186,1766974740.186,798.60803,807.47253,809.4872,786.52014
2025-12-28 21:19:00.187,1766974740187,1766974740.187,798.60803,807.8755,807.0696,784.90845
2025-12-28 21:19:00.187,1766974740187,1766974740.187,795.38464,802.23444,805.05493,782.49084
2025-12-28 21:19:00.187,1766974740187,1766974740.187,796.99634,805.4579,799.81683,786.9231
2025-12-28 21:19:00.188,1766974740188,1766974740.188,800.2198,812.71063,797.8022,795.78754
2025-12-28 21:19:00.189,1766974740189,1766974740.189,794.9817,797.8022,804.65204,789.7436
2025-12-28 21:19:00.189,1766974740189,1766974740.189,796.5934,800.6227,804.65204,791.75824
2025-12-28 21:19:00.190,1766974740190,1766974740.19,783.69965,805.4579,796.1905,791.3553
2025-12-28 21:19:00.190,1766974740190,1766974740.19,781.685,801.4286,800.2198,781.28204
2025-12-28 21:19:00.190,1766974740190,1766974740.19,790.9524,809.89014,801.8315,788.5348
2025-12-28 21:19:00.190,1766974740190,1766974740.19,784.10254,804.2491,794.17584,791.3553
2025-12-28 21:19:00.217,1766974740217,1766974740.217,780.4762,796.5934,798.20514,782.49084
2025-12-28 21:19:00.217,1766974740217,1766974740.217,786.1172,803.8461,797.3993,785.31134
2025-12-28 21:19:00.218,1766974740218,1766974740.218,794.9817,806.26373,801.8315,787.326
2025-12-28 21:19:00.218,1766974740218,1766974740.218,791.75824,801.8315,804.2491,786.1172
2025-12-28 21:19:00.218,1766974740218,1766974740.218,786.52014,801.8315,803.0403,785.7143
2025-12-28 21:19:00.218,1766974740218,1766974740.218,791.75824,801.8315,800.2198,789.34064
2025-12-28 21:19:00.219,1766974740219,1766974740.219,791.75824,796.1905,803.8461,789.34064
2025-12-28 21:19:00.219,1766974740219,1766974740.219,803.8461,811.0989,802.6374,799.011
2025-12-28 21:19:00.219,1766974740219,1766974740.219,800.6227,811.50183,805.4579,799.81683
2025-12-28 21:19:00.220,1766974740220,1766974740.22,791.75824,794.9817,803.0403,787.72894
2025-12-28 21:19:00.220,1766974740220,1766974740.22,799.011,808.68134,805.4579,784.90845
2025-12-28 21:19:00.220,1766974740220,1766974740.22,805.05493,807.8755,802.6374,782.49084
2025-12-28 21:19:00.300,1766974740300,1766974740.3,799.41394,799.81683,802.23444,789.34064
2025-12-28 21:19:00.301,1766974740301,1766974740.301,795.38464,793.7729,798.20514,791.3553
2025-12-28 21:19:00.301,1766974740301,1766974740.301,798.60803,809.4872,810.293,793.36993
2025-12-28 21:19:00.301,1766974740301,1766974740.301,809.0842,814.7253,809.4872,799.41394
2025-12-28 21:19:00.301,1766974740301,1766974740.301,806.26373,801.4286,801.8315,798.60803
2025-12-28 21:19:00.302,1766974740302,1766974740.302,804.2491,804.65204,812.71063,800.2198
2025-12-28 21:19:00.302,1766974740302,1766974740.302,803.0403,809.0842,801.02563,796.5934
2025-12-28 21:19:00.302,1766974740302,1766974740.302,798.20514,805.05493,795.78754,793.36993
2025-12-28 21:19:00.304,1766974740304,1766974740.304,796.5934,801.4286,808.68134,797.8022
2025-12-28 21:19:00.304,1766974740304,1766974740.304,785.31134,796.5934,797.8022,787.72894
2025-12-28 21:19:00.304,1766974740304,1766974740.304,789.7436,798.60803,799.41394,790.9524
2025-12-28 21:19:00.305,1766974740305,1766974740.305,801.4286,803.8461,804.65204,799.81683
2025-12-28 21:19:00.347,1766974740347,1766974740.347,804.2491,805.05493,807.47253,798.60803
2025-12-28 21:19:00.348,1766974740348,1766974740.348,805.8608,804.65204,800.6227,800.2198
2025-12-28 21:19:00.348,1766974740348,1766974740.348,802.6374,805.8608,812.71063,797.3993
2025-12-28 21:19:00.348,1766974740348,1766974740.348,807.47253,807.47253,812.3077,800.2198
2025-12-28 21:19:00.348,1766974740348,1766974740.348,801.02563,797.3993,803.0403,795.78754
2025-12-28 21:19:00.349,1766974740349,1766974740.349,789.34064,789.34064,797.8022,788.93774
2025-12-28 21:19:00.349,1766974740349,1766974740.349,790.9524,789.7436,802.23444,793.36993
2025-12-28 21:19:00.349,1766974740349,1766974740.349,794.57874,796.99634,806.6667,789.7436
2025-12-28 21:19:00.349,1766974740349,1766974740.349,790.54944,794.57874,806.6667,790.14655
2025-12-28 21:19:00.350,1766974740350,1766974740.35,792.96704,795.38464,805.8608,791.3553
2025-12-28 21:19:00.350,1766974740350,1766974740.35,791.3553,791.3553,801.02563,784.5055
2025-12-28 21:19:00.350,1766974740350,1766974740.35,793.7729,799.41394,806.6667,788.5348
2025-12-28 21:19:00.385,1766974740385,1766974740.385,786.52014,782.49084,792.1612,782.0879
2025-12-28 21:19:00.386,1766974740386,1766974740.386,784.5055,786.1172,809.0842,782.49084
2025-12-28 21:19:00.386,1766974740386,1766974740.386,787.72894,781.28204,799.81683,778.0586
2025-12-28 21:19:00.387,1766974740387,1766974740.387,785.31134,788.93774,802.23444,786.52014
2025-12-28 21:19:00.387,1766974740387,1766974740.387,786.1172,780.4762,799.81683,784.90845
2025-12-28 21:19:00.387,1766974740387,1766974740.387,780.4762,776.8498,791.75824,783.69965
2025-12-28 21:19:00.387,1766974740387,1766974740.387,776.8498,782.49084,795.38464,784.10254
2025-12-28 21:19:00.388,1766974740388,1766974740.388,782.8938,790.14655,798.60803,792.96704
2025-12-28 21:19:00.388,1766974740388,1766974740.388,785.7143,781.685,796.1905,793.7729
2025-12-28 21:19:00.388,1766974740388,1766974740.388,790.9524,782.49084,799.81683,788.5348
2025-12-28 21:19:00.390,1766974740390,1766974740.39,784.5055,786.1172,799.41394,784.5055
2025-12-28 21:19:00.390,1766974740390,1766974740.39,782.49084,796.5934,798.20514,788.93774
2025-12-28 21:19:00.416,1766974740416,1766974740.416,783.2967,794.9817,797.3993,786.52014
2025-12-28 21:19:00.417,1766974740417,1766974740.417,792.1612,794.57874,800.6227,789.34064
2025-12-28 21:19:00.417,1766974740417,1766974740.417,786.52014,788.5348,801.02563,783.69965
2025-12-28 21:19:00.417,1766974740417,1766974740.417,786.1172,786.9231,800.2198,784.90845
2025-12-28 21:19:00.418,1766974740418,1766974740.418,780.07324,783.2967,805.8608,783.69965
2025-12-28 21:19:00.418,1766974740418,1766974740.418,787.72894,785.7143,799.41394,789.34064
2025-12-28 21:19:00.418,1766974740418,1766974740.418,787.72894,782.8938,790.14655,786.1172
2025-12-28 21:19:00.418,1766974740418,1766974740.418,782.0879,778.86444,791.75824,784.5055
2025-12-28 21:19:00.419,1766974740419,1766974740.419,782.0879,784.90845,794.17584,786.52014
2025-12-28 21:19:00.419,1766974740419,1766974740.419,786.9231,790.54944,795.78754,788.1319
2025-12-28 21:19:00.419,1766974740419,1766974740.419,790.14655,792.1612,795.38464,791.3553
2025-12-28 21:19:00.419,1766974740419,1766974740.419,784.10254,793.7729,794.17584,786.52014
2025-12-28 21:19:00.505,1766974740505,1766974740.505,780.87915,791.3553,799.81683,780.87915
2025-12-28 21:19:00.506,1766974740506,1766974740.506,787.72894,799.41394,800.6227,788.1319
2025-12-28 21:19:00.506,1766974740506,1766974740.506,789.34064,797.8022,800.6227,788.5348
2025-12-28 21:19:00.506,1766974740506,1766974740.506,787.72894,793.36993,805.8608,792.5641
2025-12-28 21:19:00.506,1766974740506,1766974740.506,790.14655,793.36993,801.8315,793.36993
2025-12-28 21:19:00.507,1766974740507,1766974740.507,782.8938,788.1319,802.23444,785.7143
2025-12-28 21:19:00.507,1766974740507,1766974740.507,782.49084,784.10254,801.8315,786.9231
2025-12-28 21:19:00.507,1766974740507,1766974740.507,784.5055,793.36993,801.8315,787.72894
2025-12-28 21:19:00.507,1766974740507,1766974740.507,786.52014,797.3993,800.6227,786.1172
2025-12-28 21:19:00.508,1766974740508,1766974740.508,791.75824,794.17584,801.02563,788.93774
2025-12-28 21:19:00.508,1766974740508,1766974740.508,796.1905,795.38464,805.8608,797.3993
2025-12-28 21:19:00.508,1766974740508,1766974740.508,801.4286,804.2491,808.2784,799.81683
2025-12-28 21:19:00.511,1766974740511,1766974740.511,796.1905,799.011,802.23444,792.5641
2025-12-28 21:19:00.512,1766974740512,1766974740.512,783.69965,792.5641,801.02563,786.52014
2025-12-28 21:19:00.512,1766974740512,1766974740.512,788.93774,800.6227,805.8608,794.17584
2025-12-28 21:19:00.512,1766974740512,1766974740.512,794.57874,800.2198,806.6667,792.1612
2025-12-28 21:19:00.513,1766974740513,1766974740.513,788.93774,794.9817,802.6374,782.8938
2025-12-28 21:19:00.513,1766974740513,1766974740.513,786.1172,793.36993,802.23444,784.90845
2025-12-28 21:19:00.513,1766974740513,1766974740.513,790.54944,796.1905,803.44324,786.52014
2025-12-28 21:19:00.513,1766974740513,1766974740.513,797.3993,794.57874,795.78754,783.2967
2025-12-28 21:19:00.514,1766974740514,1766974740.514,794.17584,802.6374,806.26373,794.17584
2025-12-28 21:19:00.514,1766974740514,1766974740.514,791.3553,804.65204,806.26373,793.7729
2025-12-28 21:19:00.514,1766974740514,1766974740.514,785.7143,795.78754,799.81683,787.72894
2025-12-28 21:19:00.514,1766974740514,1766974740.514,791.75824,789.7436,792.96704,783.2967
2025-12-28 21:19:00.590,1766974740590,1766974740.59,794.17584,797.8022,802.6374,789.34064
2025-12-28 21:19:00.591,1766974740591,1766974740.591,791.3553,792.1612,799.81683,788.5348
2025-12-28 21:19:00.591,1766974740591,1766974740.591,785.31134,796.5934,805.8608,793.36993
2025-12-28 21:19:00.591,1766974740591,1766974740.591,786.52014,795.78754,807.0696,785.31134
2025-12-28 21:19:00.592,1766974740592,1766974740.592,794.9817,789.7436,808.68134,784.90845
2025-12-28 21:19:00.592,1766974740592,1766974740.592,788.93774,801.02563,807.47253,782.0879
2025-12-28 21:19:00.592,1766974740592,1766974740.592,778.46155,800.6227,799.41394,772.4176
2025-12-28 21:19:00.593,1766974740593,1766974740.593,789.34064,796.1905,803.0403,790.54944
2025-12-28 21:19:00.593,1766974740593,1766974740.593,789.34064,793.7729,796.5934,787.72894
2025-12-28 21:19:00.593,1766974740593,1766974740.593,784.10254,789.34064,791.3553,779.2674
2025-12-28 21:19:00.593,1766974740593,1766974740.593,780.4762,792.5641,794.9817,776.8498
2025-12-28 21:19:00.594,1766974740594,1766974740.594,786.9231,792.1612,798.60803,785.31134
2025-12-28 21:19:00.624,1766974740624,1766974740.624,794.57874,792.1612,799.41394,790.9524
2025-12-28 21:19:00.625,1766974740625,1766974740.625,798.20514,801.8315,803.44324,790.54944
2025-12-28 21:19:00.627,1766974740627,1766974740.627,790.14655,799.81683,801.02563,783.2967
2025-12-28 21:19:00.628,1766974740628,1766974740.628,783.2967,788.1319,794.9817,783.2967
2025-12-28 21:19:00.628,1766974740628,1766974740.628,788.5348,786.9231,794.9817,789.7436
2025-12-28 21:19:00.629,1766974740629,1766974740.629,786.9231,803.0403,789.34064,785.7143
2025-12-28 21:19:00.629,1766974740629,1766974740.629,784.5055,805.4579,782.8938,786.52014
2025-12-28 21:19:00.629,1766974740629,1766974740.629,791.75824,799.41394,793.7729,794.9817
2025-12-28 21:19:00.630,1766974740630,1766974740.63,794.57874,799.41394,805.8608,794.57874
2025-12-28 21:19:00.630,1766974740630,1766974740.63,793.7729,788.5348,806.6667,798.20514
2025-12-28 21:19:00.631,1766974740631,1766974740.631,792.96704,795.78754,806.26373,797.8022
2025-12-28 21:19:00.631,1766974740631,1766974740.631,784.90845,805.4579,798.60803,782.49084
2025-12-28 21:19:00.664,1766974740664,1766974740.664,780.07324,802.23444,800.2198,782.0879
2025-12-28 21:19:00.665,1766974740665,1766974740.665,794.17584,807.47253,809.89014,798.60803
2025-12-28 21:19:00.665,1766974740665,1766974740.665,792.96704,803.8461,803.8461,795.38464
2025-12-28 21:19:00.665,1766974740665,1766974740.665,784.5055,798.20514,803.8461,790.54944
2025-12-28 21:19:00.665,1766974740665,1766974740.665,792.1612,805.05493,808.2784,797.3993
2025-12-28 21:19:00.666,1766974740666,1766974740.666,798.20514,805.05493,804.65204,795.38464
2025-12-28 21:19:00.666,1766974740666,1766974740.666,797.3993,806.6667,810.696,795.78754
2025-12-28 21:19:00.666,1766974740666,1766974740.666,794.17584,802.23444,810.293,796.1905
2025-12-28 21:19:00.666,1766974740666,1766974740.666,795.38464,801.4286,806.26373,804.2491
2025-12-28 21:19:00.667,1766974740667,1766974740.667,797.3993,807.0696,806.6667,799.81683
2025-12-28 21:19:00.667,1766974740667,1766974740.667,792.96704,796.5934,804.2491,788.5348
2025-12-28 21:19:00.667,1766974740667,1766974740.667,784.10254,788.5348,799.81683,788.5348
2025-12-28 21:19:00.692,1766974740692,1766974740.692,784.5055,793.7729,801.8315,791.3553
2025-12-28 21:19:00.692,1766974740692,1766974740.692,789.7436,794.57874,811.0989,799.41394
2025-12-28 21:19:00.693,1766974740693,1766974740.693,795.38464,802.6374,811.0989,797.3993
2025-12-28 21:19:00.693,1766974740693,1766974740.693,795.38464,804.65204,803.44324,788.93774
2025-12-28 21:19:00.694,1766974740694,1766974740.694,790.54944,800.6227,801.8315,788.5348
