unix_ms,lsl_unix_ts,TP9,AF7,AF8,TP10,Right AUX
1767593587081,1767593587.007125,25.390625,-70.3125,-10.7421875,0.9765625,-87.890625
1767593587082,1767593587.0110312,16.11328125,-43.45703125,-14.6484375,-2.9296875,-147.94921875
1767593587082,1767593587.0149374,21.484375,-73.2421875,-20.01953125,0.0,-129.8828125
1767593587082,1767593587.0188437,28.3203125,-92.28515625,-24.90234375,3.90625,57.6171875
1767593587082,1767593587.02275,18.06640625,-65.4296875,-25.390625,-1.953125,-28.3203125
1767593587082,1767593587.0266562,12.20703125,-79.58984375,-27.34375,-11.71875,-132.32421875
1767593587082,1767593587.0305624,15.13671875,-84.47265625,-31.73828125,-12.6953125,6.8359375
1767593587082,1767593587.0344687,20.99609375,-112.79296875,-26.85546875,4.8828125,305.6640625
1767593587082,1767593587.038375,20.01953125,-107.421875,-25.87890625,18.5546875,516.6015625
1767593587083,1767593587.0422812,6.8359375,-16.11328125,-28.3203125,4.39453125,170.8984375
1767593587083,1767593587.0461874,5.37109375,-6.34765625,-29.78515625,-8.30078125,-16.6015625
1767593587083,1767593587.0500937,8.7890625,-28.80859375,-36.1328125,-6.8359375,92.28515625
1767593587083,1767593587.025125,6.34765625,-20.5078125,-42.48046875,-15.13671875,48.33984375
1767593587083,1767593587.0290313,4.39453125,-51.26953125,-43.45703125,-29.296875,-81.54296875
1767593587083,1767593587.0329375,2.44140625,-84.47265625,-43.9453125,-31.73828125,-108.88671875
1767593587083,1767593587.0368438,1.46484375,-53.7109375,-43.45703125,-22.94921875,-129.39453125
1767593587083,1767593587.04075,-5.37109375,-39.0625,-42.96875,-20.5078125,-120.1171875
1767593587083,1767593587.0446563,-4.39453125,-67.87109375,-44.43359375,-22.94921875,-49.31640625
1767593587083,1767593587.0485625,-4.8828125,-79.1015625,-41.015625,-20.01953125,-62.5
1767593587083,1767593587.0524688,-8.7890625,-48.828125,-41.015625,-17.578125,-38.0859375
1767593587083,1767593587.056375,-5.37109375,-14.16015625,-41.50390625,-15.13671875,-11.71875
1767593587084,1767593587.0602813,2.44140625,-44.43359375,-38.57421875,-11.23046875,-28.80859375
1767593587084,1767593587.0641875,7.32421875,-76.171875,-37.109375,-13.18359375,-136.71875
1767593587084,1767593587.0680938,5.859375,-32.71484375,-36.62109375,-11.23046875,-351.07421875
1767593587276,1767593587.112125,5.859375,-2.44140625,-38.57421875,-4.39453125,-342.7734375
1767593587276,1767593587.1160312,8.7890625,-41.015625,-40.52734375,-6.8359375,-225.09765625
1767593587276,1767593587.1199374,7.32421875,-87.40234375,-38.0859375,-14.16015625,-85.9375
1767593587276,1767593587.1238437,0.0,-38.57421875,-37.59765625,-16.6015625,-130.37109375
1767593587276,1767593587.12775,-2.44140625,-8.30078125,-36.62109375,-14.6484375,-104.00390625
1767593587276,1767593587.1316562,-0.48828125,-62.5,-32.2265625,-9.765625,171.875
1767593587276,1767593587.1355624,-6.34765625,-76.66015625,-34.1796875,-14.6484375,262.20703125
1767593587276,1767593587.1394687,-7.8125,-31.73828125,-34.66796875,-25.390625,-60.05859375
1767593587276,1767593587.143375,-4.8828125,-19.04296875,-28.3203125,-19.53125,-149.4140625
1767593587276,1767593587.1472812,-3.90625,-47.36328125,-29.296875,-8.30078125,80.078125
1767593587276,1767593587.1511874,-8.7890625,-66.40625,-33.203125,-10.25390625,47.36328125
1767593587276,1767593587.1550937,-17.578125,-73.2421875,-34.1796875,-16.11328125,-150.390625
1767593587277,1767593587.130125,-9.27734375,-54.6875,-32.71484375,-10.7421875,-282.71484375
1767593587278,1767593587.1340313,5.37109375,-55.6640625,-27.83203125,-1.953125,-259.765625
1767593587278,1767593587.1379375,3.41796875,-134.27734375,-29.296875,-1.46484375,164.0625
1767593587278,1767593587.1418438,-3.41796875,-112.3046875,-30.2734375,-7.32421875,194.82421875
1767593587278,1767593587.14575,-2.44140625,-4.39453125,-28.80859375,-14.6484375,-167.48046875
1767593587278,1767593587.1496563,1.953125,-22.94921875,-32.2265625,-18.06640625,-120.60546875
1767593587278,1767593587.1535625,6.34765625,-72.75390625,-33.69140625,-20.5078125,-430.17578125
1767593587278,1767593587.1574688,3.41796875,-49.31640625,-31.73828125,-17.08984375,-877.9296875
1767593587278,1767593587.161375,4.39453125,-12.6953125,-32.71484375,-11.71875,-520.01953125
1767593587278,1767593587.1652813,4.39453125,-39.55078125,-28.80859375,-8.30078125,-2.44140625
1767593587278,1767593587.1691875,2.44140625,-30.76171875,-24.90234375,-7.32421875,65.4296875
1767593587279,1767593587.1730938,2.9296875,-15.13671875,-27.83203125,-13.18359375,-74.70703125
1767593587279,1767593587.159125,3.90625,-49.8046875,-26.85546875,-10.25390625,-61.03515625
1767593587279,1767593587.1630313,6.34765625,-92.28515625,-26.85546875,-0.9765625,96.6796875
1767593587279,1767593587.1669376,-0.9765625,-53.7109375,-30.76171875,-3.90625,191.89453125
1767593587279,1767593587.1708438,-0.48828125,-16.11328125,-27.83203125,-9.27734375,-54.19921875
1767593587279,1767593587.17475,1.46484375,-50.29296875,-26.85546875,-11.23046875,-93.75
1767593587279,1767593587.1786563,-1.46484375,-87.40234375,-24.90234375,-4.39453125,180.17578125
1767593587279,1767593587.1825626,2.9296875,-40.0390625,-23.92578125,-1.953125,170.41015625
1767593587279,1767593587.1864688,6.8359375,-12.6953125,-26.85546875,-11.71875,-122.55859375
1767593587279,1767593587.190375,-0.48828125,-58.59375,-28.3203125,-19.04296875,-252.9296875
1767593587279,1767593587.1942813,-8.30078125,-62.5,-29.78515625,-16.6015625,-120.60546875
1767593587279,1767593587.1981876,-0.9765625,-14.6484375,-27.34375,-9.765625,-5.37109375
1767593587279,1767593587.2020938,5.37109375,-34.1796875,-27.34375,-17.578125,10.7421875
1767593587280,1767593587.187125,6.34765625,-74.70703125,-25.390625,-21.97265625,7.32421875
1767593587280,1767593587.1910312,-3.41796875,-66.40625,-26.3671875,-26.85546875,-44.921875
1767593587280,1767593587.1949375,-6.34765625,-42.48046875,-29.78515625,-29.78515625,-168.9453125
1767593587280,1767593587.1988437,-0.9765625,-40.52734375,-28.80859375,-24.90234375,-234.375
1767593587280,1767593587.20275,-3.90625,-85.44921875,-28.80859375,-31.73828125,-195.80078125
1767593587280,1767593587.2066562,-7.32421875,-154.296875,-26.85546875,-33.203125,312.5
1767593587280,1767593587.2105625,-9.27734375,-102.05078125,-23.92578125,-24.4140625,443.84765625
1767593587280,1767593587.2144687,-9.765625,-17.578125,-26.3671875,-24.4140625,-10.25390625
1767593587280,1767593587.218375,-8.30078125,-41.9921875,-28.80859375,-35.15625,-158.203125
1767593587280,1767593587.2222812,-3.90625,-29.296875,-24.4140625,-39.55078125,-252.44140625
1767593587280,1767593587.2261875,-4.39453125,-25.390625,-20.5078125,-34.66796875,-398.92578125
1767593587280,1767593587.2300937,0.0,-47.8515625,-24.90234375,-24.90234375,-221.19140625
1767593587407,1767593587.263125,1.46484375,-99.12109375,-25.87890625,-20.01953125,57.6171875
1767593587407,1767593587.2670312,-5.37109375,-120.1171875,-25.87890625,-20.5078125,273.92578125
1767593587407,1767593587.2709374,-9.765625,-11.23046875,-27.34375,-27.83203125,-88.37890625
1767593587407,1767593587.2748437,-10.25390625,-4.39453125,-23.4375,-25.390625,-259.765625
1767593587407,1767593587.27875,-7.32421875,-55.17578125,-23.92578125,-24.90234375,-48.828125
1767593587407,1767593587.2826562,-5.859375,-66.40625,-24.90234375,-33.69140625,-32.2265625
1767593587407,1767593587.2865624,-5.37109375,-65.91796875,-25.87890625,-29.296875,-125.9765625
1767593587408,1767593587.2904687,-6.8359375,-59.08203125,-31.73828125,-25.87890625,-112.3046875
1767593587408,1767593587.294375,-6.34765625,-114.2578125,-36.1328125,-20.99609375,225.09765625
1767593587408,1767593587.2982812,-1.46484375,-46.875,-30.76171875,-18.5546875,166.015625
1767593587408,1767593587.3021874,-1.953125,13.18359375,-27.34375,-32.71484375,-167.96875
1767593587408,1767593587.3060937,-0.48828125,-37.109375,-28.3203125,-27.83203125,-160.15625
1767593587408,1767593587.294125,2.9296875,-24.4140625,-29.296875,-21.97265625,-135.7421875
1767593587408,1767593587.2980313,3.90625,-12.20703125,-24.90234375,-25.87890625,-132.8125
1767593587408,1767593587.3019376,3.41796875,-43.9453125,-20.99609375,-25.390625,-282.2265625
1767593587408,1767593587.3058438,4.39453125,-61.5234375,-23.92578125,-17.578125,-274.90234375
1767593587408,1767593587.30975,4.8828125,-46.38671875,-23.92578125,-8.7890625,-74.21875
1767593587408,1767593587.3136563,0.0,-49.31640625,-22.94921875,-15.625,-84.47265625
1767593587408,1767593587.3175626,-4.39453125,-64.94140625,-23.92578125,-22.94921875,-108.88671875
1767593587408,1767593587.3214688,-3.41796875,-81.0546875,-26.3671875,-18.06640625,19.53125
1767593587408,1767593587.325375,-3.90625,-39.55078125,-24.4140625,-16.6015625,-59.08203125
1767593587408,1767593587.3292813,-6.8359375,-14.6484375,-26.85546875,-17.578125,-164.55078125
1767593587408,1767593587.3331876,-14.6484375,-73.2421875,-29.78515625,-21.97265625,-178.22265625
1767593587408,1767593587.3370938,-19.53125,-97.16796875,-26.85546875,-25.390625,-205.56640625
1767593587408,1767593587.354125,-15.625,-41.9921875,-24.90234375,-22.4609375,-219.7265625
1767593587408,1767593587.3580313,-14.16015625,-9.765625,-28.80859375,-25.87890625,-137.6953125
1767593587408,1767593587.3619375,-16.11328125,-52.24609375,-33.69140625,-36.1328125,-81.0546875
1767593587408,1767593587.3658438,-13.671875,-136.71875,-31.73828125,-30.2734375,82.03125
1767593587408,1767593587.36975,-14.16015625,-73.73046875,-31.73828125,-19.53125,41.015625
1767593587408,1767593587.3736563,-14.6484375,-23.92578125,-35.15625,-21.97265625,27.83203125
1767593587408,1767593587.3775625,-8.30078125,-77.63671875,-32.2265625,-23.4375,164.0625
1767593587408,1767593587.3814688,-3.41796875,-77.1484375,-28.80859375,-25.87890625,-38.57421875
1767593587408,1767593587.385375,-4.39453125,-43.9453125,-30.2734375,-21.97265625,-278.3203125
1767593587408,1767593587.3892813,-6.34765625,-52.734375,-32.71484375,-15.625,-327.63671875
1767593587408,1767593587.3931875,-11.71875,-89.35546875,-34.66796875,-11.71875,-318.84765625
1767593587408,1767593587.3970938,-13.671875,-162.109375,-29.296875,-6.8359375,2.44140625
1767593587477,1767593587.367125,-6.34765625,-118.65234375,-26.85546875,-6.34765625,260.7421875
1767593587477,1767593587.3710313,-1.953125,-5.859375,-28.80859375,-18.5546875,-145.01953125
1767593587478,1767593587.3749375,-6.8359375,-35.64453125,-33.69140625,-31.25,-212.40234375
1767593587478,1767593587.3788438,-12.6953125,-56.15234375,-40.0390625,-36.1328125,-117.67578125
1767593587478,1767593587.38275,-16.11328125,-57.6171875,-40.0390625,-40.52734375,-255.37109375
1767593587478,1767593587.3866563,-2.44140625,-65.91796875,-36.62109375,-24.90234375,-72.75390625
1767593587478,1767593587.3905625,11.71875,-71.77734375,-32.71484375,-12.20703125,144.53125
1767593587478,1767593587.3944688,-10.25390625,-65.91796875,-34.66796875,-33.203125,106.4453125
1767593587478,1767593587.398375,-20.5078125,-30.76171875,-38.0859375,-39.0625,29.296875
1767593587478,1767593587.4022813,-12.20703125,-64.453125,-34.1796875,-24.90234375,-178.7109375
1767593587478,1767593587.4061875,-10.25390625,-106.93359375,-30.2734375,-18.06640625,-138.671875
1767593587478,1767593587.4100938,-5.859375,-60.546875,-28.80859375,-19.04296875,-61.03515625
1767593587481,1767593587.430125,-7.32421875,-51.26953125,-33.69140625,-30.2734375,-164.0625
1767593587481,1767593587.4340312,-13.18359375,-82.51953125,-38.0859375,-40.0390625,-169.921875
1767593587481,1767593587.4379375,-11.71875,-139.6484375,-35.64453125,-24.90234375,98.6328125
1767593587481,1767593587.4418437,-16.6015625,-138.671875,-34.66796875,-15.625,532.71484375
1767593587481,1767593587.44575,-21.484375,-34.1796875,-38.57421875,-33.69140625,289.0625
1767593587481,1767593587.4496562,-16.6015625,-47.8515625,-36.1328125,-37.109375,68.84765625
1767593587481,1767593587.4535625,-19.04296875,-89.84375,-33.203125,-30.76171875,276.85546875
1767593587481,1767593587.4574687,-19.53125,-49.31640625,-36.62109375,-35.64453125,4.39453125
1767593587481,1767593587.461375,-14.16015625,-48.33984375,-36.62109375,-37.59765625,-290.0390625
1767593587481,1767593587.4652812,-14.16015625,-96.19140625,-32.71484375,-38.57421875,-336.9140625
1767593587481,1767593587.4691875,-12.6953125,-83.0078125,-32.71484375,-32.71484375,-313.4765625
1767593587481,1767593587.4730937,-16.6015625,-35.64453125,-35.64453125,-31.73828125,-230.95703125
1767593587562,1767593587.457125,-20.01953125,-55.6640625,-34.1796875,-34.66796875,-146.484375
1767593587563,1767593587.4610312,-22.94921875,-101.07421875,-35.64453125,-33.203125,-176.7578125
1767593587563,1767593587.4649374,-20.99609375,-79.58984375,-38.0859375,-32.2265625,-232.421875
1767593587565,1767593587.4688437,-11.71875,-39.55078125,-34.1796875,-23.92578125,-234.86328125
1767593587565,1767593587.47275,-1.46484375,-64.453125,-29.296875,-19.04296875,-233.3984375
1767593587565,1767593587.4766562,-10.7421875,-117.1875,-30.2734375,-28.80859375,-42.48046875
1767593587565,1767593587.4805624,-17.08984375,-99.12109375,-29.296875,-35.15625,-13.671875
1767593587565,1767593587.4844687,-11.23046875,-67.87109375,-25.87890625,-33.69140625,-208.0078125
1767593587565,1767593587.488375,-17.08984375,-101.07421875,-29.296875,-31.25,-657.71484375
1767593587565,1767593587.4922812,-17.578125,-137.6953125,-34.66796875,-29.78515625,-935.05859375
1767593587565,1767593587.4961874,-9.765625,-159.1796875,-40.52734375,-19.53125,-540.0390625
1767593587565,1767593587.5000937,-9.765625,-82.51953125,-38.0859375,-20.5078125,-466.796875
1767593587598,1767593587.547125,0.0,9.27734375,-31.73828125,-30.76171875,-514.6484375
1767593587598,1767593587.5510314,-0.9765625,-23.92578125,-28.80859375,-31.25,-97.65625
1767593587598,1767593587.5549376,-15.13671875,-39.55078125,-27.34375,-32.2265625,14.16015625
1767593587598,1767593587.5588439,-11.23046875,-38.57421875,-30.76171875,-28.3203125,-2.44140625
1767593587601,1767593587.56275,-8.7890625,-65.91796875,-30.76171875,-24.4140625,100.5859375
1767593587601,1767593587.5666564,-10.7421875,-95.703125,-27.34375,-22.94921875,283.203125
1767593587601,1767593587.5705626,-11.71875,-82.51953125,-29.78515625,-30.2734375,225.5859375
1767593587601,1767593587.5744689,-9.27734375,-54.19921875,-33.203125,-29.78515625,4.39453125
1767593587601,1767593587.578375,0.0,-71.77734375,-32.71484375,-15.625,36.1328125
1767593587601,1767593587.5822814,-2.44140625,-72.75390625,-30.76171875,-18.06640625,102.5390625
1767593587601,1767593587.5861876,-5.37109375,-52.24609375,-32.71484375,-27.34375,-92.7734375
1767593587602,1767593587.5900939,-8.30078125,-63.96484375,-35.15625,-23.92578125,-255.859375
1767593587676,1767593587.551125,-9.27734375,-92.7734375,-29.78515625,-22.4609375,-114.2578125
1767593587676,1767593587.5550313,-9.765625,-126.953125,-26.85546875,-16.6015625,269.04296875
1767593587676,1767593587.5589375,-12.20703125,-41.50390625,-25.87890625,-23.4375,120.1171875
1767593587676,1767593587.5628438,-8.7890625,-43.9453125,-29.296875,-25.87890625,-188.4765625
1767593587676,1767593587.56675,-3.90625,-121.09375,-34.66796875,-17.578125,-625.0
1767593587676,1767593587.5706563,3.90625,-105.46875,-30.76171875,-13.18359375,-750.48828125
1767593587676,1767593587.5745625,-1.953125,-82.51953125,-28.80859375,-15.13671875,-673.33984375
1767593587676,1767593587.5784688,-7.32421875,-79.58984375,-32.71484375,-29.78515625,-661.62109375
1767593587676,1767593587.582375,29.78515625,-88.37890625,-28.80859375,-3.41796875,-412.109375
1767593587677,1767593587.5862813,28.3203125,-47.36328125,-22.94921875,-3.41796875,-336.9140625
1767593587677,1767593587.5901875,-4.8828125,-7.32421875,-26.3671875,-48.33984375,-249.0234375
1767593587677,1767593587.5940938,-0.48828125,-69.82421875,-31.73828125,-56.15234375,41.50390625
1767593587690,1767593587.638125,-8.7890625,-87.890625,-32.71484375,-53.22265625,203.61328125
1767593587690,1767593587.6420312,-30.76171875,-35.64453125,-30.76171875,-47.36328125,273.4375
1767593587690,1767593587.6459374,-47.36328125,-48.33984375,-29.296875,-47.36328125,70.80078125
1767593587690,1767593587.6498437,-74.21875,-80.078125,-21.97265625,-52.24609375,-32.2265625
1767593587690,1767593587.65375,-85.9375,-145.01953125,-14.6484375,-41.015625,307.6171875
1767593587690,1767593587.6576562,-87.40234375,-132.8125,-13.671875,-39.55078125,703.125
1767593587690,1767593587.6615624,-99.12109375,-36.1328125,-13.671875,-68.359375,355.95703125
1767593587690,1767593587.6654687,-90.8203125,-62.01171875,-14.6484375,-83.49609375,-37.109375
1767593587690,1767593587.669375,-76.66015625,-85.9375,-15.625,-75.1953125,-89.35546875
1767593587690,1767593587.6732812,-69.82421875,-30.2734375,-19.04296875,-70.3125,-109.375
1767593587690,1767593587.6771874,-60.05859375,-29.78515625,-18.5546875,-74.21875,28.80859375
1767593587690,1767593587.6810937,-52.734375,-74.21875,-20.01953125,-73.73046875,133.30078125
1767593587718,1767593587.667125,-51.7578125,-61.03515625,-24.4140625,-67.3828125,80.56640625
1767593587718,1767593587.6710312,-38.0859375,-45.41015625,-25.390625,-53.22265625,-104.98046875
1767593587718,1767593587.6749375,-32.71484375,-62.01171875,-23.4375,-41.50390625,-118.65234375
1767593587718,1767593587.6788437,-31.73828125,-65.91796875,-23.4375,-42.48046875,-49.31640625
1767593587718,1767593587.68275,-24.4140625,-64.94140625,-25.390625,-44.43359375,60.546875
1767593587718,1767593587.6866562,-28.80859375,-75.68359375,-25.87890625,-42.48046875,65.4296875
1767593587718,1767593587.6905625,-27.34375,-79.58984375,-27.34375,-32.2265625,50.29296875
1767593587718,1767593587.6944687,-19.04296875,-84.9609375,-26.3671875,-28.3203125,196.2890625
1767593587718,1767593587.698375,-20.99609375,-69.82421875,-22.94921875,-43.9453125,68.84765625
1767593587718,1767593587.7022812,-29.78515625,-44.921875,-25.87890625,-50.78125,-92.28515625
1767593587718,1767593587.7061875,-21.484375,-72.265625,-31.25,-38.0859375,-151.85546875
1767593587718,1767593587.7100937,-10.7421875,-114.2578125,-28.80859375,-29.78515625,-142.578125
1767593587870,1767593587.742125,-13.18359375,-81.54296875,-30.2734375,-33.203125,-176.7578125
1767593587870,1767593587.7460313,-16.11328125,-62.98828125,-33.203125,-34.66796875,-258.30078125
1767593587870,1767593587.7499375,-5.37109375,-68.84765625,-28.80859375,-25.390625,-149.90234375
1767593587870,1767593587.7538438,4.39453125,-128.41796875,-31.73828125,-6.8359375,211.42578125
1767593587870,1767593587.75775,3.41796875,-125.0,-33.203125,-0.48828125,432.6171875
1767593587870,1767593587.7616563,3.41796875,-45.41015625,-27.83203125,-14.6484375,85.9375
1767593587870,1767593587.7655625,9.27734375,-61.5234375,-27.34375,-13.671875,-139.6484375
1767593587870,1767593587.7694688,9.27734375,-55.17578125,-32.2265625,-5.37109375,-84.47265625
1767593587870,1767593587.773375,5.859375,-29.296875,-30.76171875,-10.7421875,-133.30078125
1767593587870,1767593587.7772813,8.30078125,-50.78125,-27.34375,-20.01953125,-260.7421875
1767593587870,1767593587.7811875,5.859375,-94.7265625,-28.3203125,-17.578125,-232.91015625
1767593587870,1767593587.7850938,-0.48828125,-136.23046875,-32.2265625,2.44140625,165.0390625
1767593587876,1767593587.818125,-3.41796875,-45.8984375,-34.1796875,-5.37109375,54.6875
1767593587876,1767593587.8220313,-5.859375,-22.94921875,-35.15625,-20.99609375,-214.84375
1767593587876,1767593587.8259375,-1.46484375,-69.82421875,-32.71484375,-16.6015625,-128.90625
1767593587876,1767593587.8298438,6.8359375,-35.15625,-25.87890625,-2.9296875,-77.63671875
1767593587876,1767593587.83375,11.23046875,-44.921875,-20.99609375,-1.953125,-125.0
1767593587876,1767593587.8376563,1.953125,-83.49609375,-33.203125,-18.5546875,-68.84765625
1767593587876,1767593587.8415625,-9.765625,-96.19140625,-39.55078125,-26.85546875,11.23046875
1767593587876,1767593587.8454688,-14.16015625,-68.359375,-30.76171875,-20.5078125,128.41796875
1767593587876,1767593587.849375,-6.8359375,-32.71484375,-31.73828125,-16.6015625,131.8359375
1767593587876,1767593587.8532813,-0.9765625,-43.45703125,-36.62109375,-30.76171875,-63.4765625
1767593587876,1767593587.8571875,-13.671875,-93.26171875,-35.15625,-35.15625,36.62109375
1767593587876,1767593587.8610938,-20.5078125,-70.3125,-39.0625,-21.97265625,-91.30859375
1767593587898,1767593587.848125,-7.8125,-21.484375,-39.55078125,-23.92578125,-168.9453125
1767593587898,1767593587.8520312,5.37109375,-83.0078125,-35.15625,-34.1796875,-541.50390625
1767593587898,1767593587.8559375,3.90625,-118.65234375,-31.73828125,-37.59765625,-831.54296875
1767593587898,1767593587.8598437,-5.859375,-42.48046875,-32.71484375,-37.59765625,-396.484375
1767593587898,1767593587.86375,-6.8359375,-31.73828125,-34.1796875,-33.69140625,-264.16015625
1767593587898,1767593587.8676562,0.9765625,-78.125,-36.62109375,-28.80859375,-96.19140625
1767593587898,1767593587.8715625,3.41796875,-98.14453125,-40.0390625,-32.71484375,31.73828125
1767593587898,1767593587.8754687,-5.859375,-59.08203125,-40.52734375,-35.15625,-123.53515625
1767593587898,1767593587.879375,-5.859375,-48.33984375,-41.50390625,-31.73828125,-147.4609375
1767593587898,1767593587.8832812,-2.44140625,-83.984375,-38.0859375,-26.85546875,-7.32421875
1767593587898,1767593587.8871875,-15.625,-92.28515625,-37.59765625,-34.66796875,92.28515625
1767593587898,1767593587.8910937,-20.5078125,-67.87109375,-37.59765625,-42.48046875,-123.046875
1767593587906,1767593587.851125,-18.06640625,-66.89453125,-34.66796875,-33.203125,-269.04296875
1767593587906,1767593587.8550313,-13.671875,-86.42578125,-34.1796875,-22.94921875,-66.40625
1767593587906,1767593587.8589375,-6.34765625,-84.9609375,-39.0625,-20.5078125,70.80078125
1767593587906,1767593587.8628438,-8.30078125,-60.05859375,-39.0625,-28.3203125,-172.36328125
1767593587906,1767593587.86675,-20.99609375,-80.56640625,-41.9921875,-34.66796875,-243.65234375
1767593587906,1767593587.8706563,-19.53125,-103.515625,-41.50390625,-23.4375,14.6484375
1767593587906,1767593587.8745625,-14.16015625,-87.890625,-38.0859375,-14.6484375,160.15625
1767593587906,1767593587.8784688,-11.71875,-62.01171875,-38.57421875,-20.01953125,152.83203125
1767593587906,1767593587.882375,-4.8828125,-69.82421875,-35.64453125,-16.11328125,201.171875
1767593587906,1767593587.8862813,0.48828125,-81.54296875,-36.1328125,0.0,211.42578125
1767593587906,1767593587.8901875,-3.41796875,-52.734375,-37.59765625,-9.27734375,133.30078125
1767593587906,1767593587.8940938,-9.27734375,-65.4296875,-38.57421875,-25.87890625,-47.8515625
1767593587958,1767593587.907125,-13.671875,-116.69921875,-40.52734375,-24.4140625,-246.58203125
1767593587958,1767593587.9110312,-9.765625,-148.92578125,-37.109375,-4.8828125,-83.0078125
1767593587958,1767593587.9149375,-3.90625,-140.13671875,-36.1328125,7.32421875,433.10546875
1767593587958,1767593587.9188437,-9.27734375,-62.5,-43.9453125,-10.25390625,384.27734375
1767593587958,1767593587.92275,-10.25390625,-41.9921875,-42.48046875,-22.4609375,-123.53515625
1767593587958,1767593587.9266562,-9.27734375,-87.40234375,-39.0625,-14.16015625,5.859375
1767593587958,1767593587.9305625,-11.71875,-62.98828125,-45.8984375,-9.27734375,-18.06640625
1767593587958,1767593587.9344687,-10.25390625,-39.0625,-40.0390625,-10.7421875,-301.7578125
1767593587958,1767593587.938375,-7.8125,-65.4296875,-36.1328125,-23.92578125,-224.609375
1767593587958,1767593587.9422812,-0.48828125,-148.92578125,-38.57421875,-13.18359375,268.5546875
1767593587958,1767593587.9461875,-12.6953125,-132.32421875,-41.015625,-1.953125,511.71875
1767593587958,1767593587.9500937,-28.3203125,-26.85546875,-41.50390625,-14.16015625,190.91796875
1767593588016,1767593587.937125,-20.01953125,-47.8515625,-36.62109375,-23.92578125,-84.9609375
1767593588016,1767593587.9410312,-15.625,-78.125,-39.55078125,-26.3671875,-234.86328125
1767593588016,1767593587.9449375,-9.765625,-64.453125,-40.52734375,-18.06640625,-321.2890625
1767593588016,1767593587.9488437,-15.625,-78.125,-39.55078125,-11.71875,-135.7421875
1767593588016,1767593587.95275,-16.6015625,-113.76953125,-40.0390625,-12.6953125,-246.09375
1767593588016,1767593587.9566562,-10.7421875,-125.9765625,-42.48046875,-15.625,-700.68359375
1767593588016,1767593587.9605625,-13.18359375,-74.21875,-42.48046875,-20.01953125,-870.60546875
1767593588017,1767593587.9644687,-16.11328125,-65.91796875,-42.96875,-20.01953125,-751.46484375
1767593588017,1767593587.968375,-10.25390625,-79.58984375,-42.96875,-16.6015625,-666.9921875
1767593588017,1767593587.9722812,-4.39453125,-31.73828125,-39.0625,-21.484375,-326.171875
1767593588017,1767593587.9761875,-7.32421875,-17.08984375,-39.55078125,-25.87890625,-104.98046875
1767593588017,1767593587.9800937,-5.859375,-38.57421875,-41.015625,-19.53125,-123.046875
1767593588073,1767593588.013125,0.0,-111.81640625,-38.57421875,-11.23046875,131.34765625
1767593588074,1767593588.0170312,8.30078125,-83.984375,-37.59765625,-6.34765625,205.56640625
1767593588074,1767593588.0209374,11.71875,6.34765625,-38.0859375,-12.20703125,-222.65625
1767593588074,1767593588.0248437,7.32421875,-27.34375,-39.0625,-11.71875,-241.2109375
1767593588074,1767593588.02875,-1.953125,-55.17578125,-39.0625,-10.7421875,-31.25
1767593588074,1767593588.0326562,-1.953125,-58.10546875,-35.64453125,-13.18359375,-62.5
1767593588074,1767593588.0365624,5.859375,-49.8046875,-35.64453125,-13.671875,-59.5703125
1767593588074,1767593588.0404687,-0.48828125,-46.875,-38.57421875,-12.20703125,90.33203125
1767593588074,1767593588.044375,-3.41796875,-46.38671875,-38.0859375,-9.27734375,179.19921875
1767593588074,1767593588.0482812,-0.48828125,-32.2265625,-33.69140625,-13.671875,-41.50390625
1767593588074,1767593588.0521874,-10.25390625,-47.8515625,-33.203125,-20.99609375,-195.3125
1767593588074,1767593588.0560937,-11.71875,-74.70703125,-32.71484375,-22.94921875,-184.5703125
1767593588104,1767593588.042125,-10.7421875,-52.24609375,-33.203125,-15.625,-24.4140625
1767593588104,1767593588.0460312,-12.20703125,-34.66796875,-34.1796875,-16.11328125,-25.87890625
1767593588104,1767593588.0499375,-8.7890625,-46.875,-31.25,-29.296875,-126.46484375
1767593588104,1767593588.0538437,-11.23046875,-75.68359375,-31.25,-21.484375,-7.32421875
1767593588104,1767593588.05775,-8.7890625,-96.6796875,-30.76171875,0.48828125,302.24609375
1767593588104,1767593588.0616562,-11.23046875,-20.01953125,-34.1796875,-14.16015625,139.6484375
1767593588104,1767593588.0655625,-12.20703125,-18.5546875,-35.15625,-30.76171875,10.7421875
1767593588104,1767593588.0694687,-14.6484375,-55.6640625,-35.15625,-27.83203125,113.76953125
1767593588104,1767593588.073375,-27.34375,-28.3203125,-34.66796875,-20.99609375,117.1875
1767593588104,1767593588.0772812,-22.4609375,-1.46484375,-33.69140625,-23.4375,-103.515625
1767593588104,1767593588.0811875,-19.04296875,-22.4609375,-37.109375,-32.2265625,-227.05078125
1767593588104,1767593588.0850937,-12.20703125,-72.75390625,-38.0859375,-41.50390625,-58.10546875
1767593588138,1767593588.074125,-10.7421875,-31.25,-36.1328125,-26.3671875,-125.48828125
1767593588138,1767593588.0780313,-7.32421875,4.8828125,-33.203125,-15.625,-187.98828125
1767593588138,1767593588.0819376,0.0,-20.5078125,-35.64453125,-31.25,-191.40625
1767593588138,1767593588.0858438,2.44140625,-107.91015625,-36.1328125,-29.296875,-28.80859375
1767593588138,1767593588.08975,-7.32421875,-98.14453125,-33.69140625,-20.01953125,312.5
1767593588138,1767593588.0936563,-18.06640625,13.671875,-35.15625,-21.484375,223.14453125
1767593588138,1767593588.0975626,-8.30078125,-8.7890625,-34.66796875,-21.484375,91.30859375
1767593588138,1767593588.1014688,-4.39453125,-39.0625,-30.76171875,-25.390625,72.75390625
1767593588138,1767593588.105375,-1.953125,1.46484375,-31.73828125,-30.76171875,-59.08203125
1767593588138,1767593588.1092813,2.9296875,3.41796875,-36.62109375,-36.62109375,-139.16015625
1767593588138,1767593588.1131876,-12.20703125,-41.50390625,-30.2734375,-33.203125,-87.40234375
1767593588138,1767593588.1170938,-24.4140625,-120.60546875,-28.80859375,-21.97265625,256.34765625
1767593588186,1767593588.117125,-11.71875,-45.8984375,-32.71484375,-35.15625,61.03515625
1767593588186,1767593588.1210313,-10.7421875,27.83203125,-30.2734375,-40.52734375,-306.15234375
1767593588186,1767593588.1249375,-12.6953125,-33.203125,-31.25,-39.0625,-124.0234375
1767593588186,1767593588.1288438,-19.53125,-56.640625,-34.1796875,-40.52734375,-229.00390625
1767593588186,1767593588.13275,-27.83203125,-64.94140625,-34.1796875,-33.203125,-368.65234375
1767593588186,1767593588.1366563,-20.5078125,-59.5703125,-28.80859375,-23.4375,-138.18359375
1767593588186,1767593588.1405625,-18.06640625,-77.63671875,-24.90234375,-15.625,119.62890625
1767593588186,1767593588.1444688,-24.4140625,-117.67578125,-28.80859375,-16.11328125,389.6484375
1767593588186,1767593588.148375,-16.6015625,-29.296875,-30.76171875,-33.203125,4.8828125
1767593588186,1767593588.1522813,-5.859375,-27.34375,-28.3203125,-37.59765625,-389.16015625
1767593588186,1767593588.1561875,-18.5546875,-84.47265625,-29.296875,-21.484375,-229.4921875
1767593588186,1767593588.1600938,-20.99609375,-48.33984375,-35.15625,-25.87890625,-148.92578125
1767593588247,1767593588.177125,-23.92578125,-48.33984375,-37.109375,-38.0859375,-270.01953125
1767593588247,1767593588.1810312,-23.92578125,-95.703125,-37.109375,-29.78515625,-243.65234375
1767593588247,1767593588.1849375,-18.5546875,-127.44140625,-37.109375,-19.04296875,0.0
1767593588247,1767593588.1888437,-15.13671875,-68.84765625,-35.64453125,-29.296875,-66.89453125
1767593588247,1767593588.19275,-11.71875,-67.3828125,-38.57421875,-42.48046875,-222.65625
1767593588247,1767593588.1966562,-19.04296875,-125.9765625,-39.55078125,-45.8984375,-108.3984375
1767593588247,1767593588.2005625,-22.4609375,-114.2578125,-38.57421875,-45.8984375,127.44140625
1767593588247,1767593588.2044687,-17.08984375,-64.94140625,-37.109375,-43.45703125,-125.0
1767593588247,1767593588.208375,-13.671875,-59.5703125,-32.2265625,-47.8515625,-345.703125
1767593588247,1767593588.2122812,-17.08984375,-117.67578125,-33.203125,-55.17578125,-301.7578125
1767593588247,1767593588.2161875,-19.53125,-156.25,-38.57421875,-40.0390625,-70.3125
1767593588247,1767593588.2200937,-13.671875,-60.05859375,-36.1328125,-29.296875,-135.25390625
1767593588272,1767593588.207125,-14.6484375,-54.19921875,-36.1328125,-41.50390625,-286.62109375
1767593588272,1767593588.2110312,-17.08984375,-117.1875,-34.66796875,-47.36328125,-234.375
1767593588272,1767593588.2149374,-6.34765625,-92.28515625,-30.76171875,-44.921875,-222.16796875
1767593588272,1767593588.2188437,1.953125,-74.21875,-35.15625,-29.78515625,-135.25390625
1767593588272,1767593588.22275,-3.41796875,-100.09765625,-35.64453125,-25.390625,-119.140625
1767593588272,1767593588.2266562,-11.23046875,-146.97265625,-36.62109375,-38.0859375,-17.578125
1767593588272,1767593588.2305624,-17.08984375,-148.4375,-39.0625,-28.3203125,388.671875
1767593588272,1767593588.2344687,-18.5546875,-77.1484375,-33.69140625,-22.4609375,192.87109375
1767593588272,1767593588.238375,-9.27734375,-83.0078125,-27.83203125,-24.4140625,-18.5546875
1767593588272,1767593588.2422812,1.953125,-114.74609375,-25.390625,-20.99609375,4.8828125
1767593588272,1767593588.2461874,2.44140625,-82.51953125,-24.90234375,-20.01953125,-107.421875
1767593588272,1767593588.2500937,-2.44140625,-58.59375,-24.90234375,-20.5078125,-239.2578125
1767593588333,1767593588.283125,-2.44140625,-80.56640625,-24.4140625,-18.06640625,-178.22265625
1767593588333,1767593588.2870312,-2.9296875,-149.90234375,-23.92578125,-18.06640625,79.58984375
1767593588333,1767593588.2909374,-6.34765625,-107.421875,-23.4375,-25.87890625,73.73046875
1767593588333,1767593588.2948437,-3.90625,-50.29296875,-21.97265625,-22.94921875,-122.0703125
1767593588333,1767593588.29875,-3.90625,-106.93359375,-24.90234375,-20.99609375,-49.31640625
1767593588333,1767593588.3026562,-0.48828125,-148.92578125,-27.34375,-22.4609375,156.73828125
1767593588333,1767593588.3065624,3.41796875,-135.25390625,-29.78515625,-25.390625,-1.46484375
1767593588333,1767593588.3104687,6.34765625,-113.28125,-23.4375,-25.390625,-170.41015625
1767593588333,1767593588.314375,8.7890625,-108.88671875,-18.5546875,-13.18359375,-125.48828125
1767593588333,1767593588.3182812,2.44140625,-155.76171875,-23.4375,-12.20703125,77.63671875
1767593588333,1767593588.3221874,-0.9765625,-87.890625,-20.99609375,-19.53125,-60.05859375
1767593588333,1767593588.3260937,0.48828125,-47.36328125,-17.08984375,-19.04296875,-386.23046875
1767593588410,1767593588.312125,1.46484375,-88.37890625,-20.99609375,-15.625,-275.390625
1767593588410,1767593588.3160312,6.8359375,-74.70703125,-20.5078125,-13.18359375,-159.1796875
1767593588410,1767593588.3199375,2.44140625,-74.70703125,-16.6015625,-6.8359375,-266.11328125
1767593588410,1767593588.3238437,-0.48828125,-89.35546875,-11.71875,-6.8359375,-297.8515625
1767593588410,1767593588.32775,6.34765625,-97.16796875,-19.53125,-6.34765625,-94.7265625
1767593588410,1767593588.3316562,-4.39453125,-87.40234375,-23.92578125,-8.30078125,68.84765625
1767593588410,1767593588.3355625,-7.32421875,-71.2890625,-22.4609375,-13.18359375,74.70703125
1767593588410,1767593588.3394687,-1.953125,-77.1484375,-24.90234375,-17.08984375,36.1328125
1767593588410,1767593588.343375,-0.9765625,-81.54296875,-24.90234375,-10.7421875,59.08203125
1767593588410,1767593588.3472812,6.34765625,-53.22265625,-17.578125,2.44140625,35.64453125
1767593588410,1767593588.3511875,5.37109375,-33.69140625,-13.671875,-0.48828125,-123.53515625
1767593588410,1767593588.3550937,2.44140625,-42.96875,-13.671875,-9.27734375,-360.83984375
1767593588420,1767593588.362125,0.9765625,-113.28125,-16.6015625,2.44140625,-183.10546875
1767593588420,1767593588.3660312,-6.8359375,-116.2109375,-20.01953125,11.23046875,280.76171875
1767593588420,1767593588.3699374,-6.8359375,10.25390625,-17.08984375,-1.953125,41.50390625
1767593588420,1767593588.3738437,-3.41796875,0.0,-14.6484375,-7.32421875,-150.390625
1767593588420,1767593588.37775,-6.34765625,-68.359375,-16.11328125,-9.765625,-169.43359375
1767593588420,1767593588.3816562,-3.90625,-52.24609375,-18.5546875,-10.7421875,-150.390625
1767593588420,1767593588.3855624,-1.46484375,-47.36328125,-17.08984375,-9.27734375,-7.32421875
1767593588420,1767593588.3894687,-9.765625,-68.84765625,-12.6953125,-20.5078125,-135.7421875
1767593588420,1767593588.393375,-9.27734375,-64.453125,-12.6953125,-18.06640625,-237.79296875
1767593588420,1767593588.3972812,-5.37109375,-22.94921875,-13.671875,-9.765625,-309.5703125
1767593588420,1767593588.4011874,-9.27734375,-13.671875,-13.671875,-11.71875,-309.08203125
1767593588420,1767593588.4050937,-8.30078125,-50.78125,-17.578125,-22.4609375,-188.96484375
1767593588480,1767593588.417125,-14.6484375,-80.56640625,-20.5078125,-26.3671875,-89.84375
1767593588480,1767593588.4210312,-22.4609375,-44.43359375,-20.99609375,-24.90234375,-167.48046875
1767593588480,1767593588.4249375,-20.99609375,-31.25,-19.04296875,-28.3203125,-180.6640625
1767593588480,1767593588.4288437,-8.30078125,-58.10546875,-10.7421875,-20.01953125,-2.44140625
1767593588480,1767593588.43275,-15.13671875,-59.5703125,-9.765625,-39.55078125,-10.25390625
1767593588480,1767593588.4366562,-29.78515625,-51.26953125,-19.53125,-64.94140625,-96.6796875
1767593588480,1767593588.4405625,-18.5546875,-57.6171875,-16.11328125,-50.29296875,-354.4921875
1767593588480,1767593588.4444687,-10.25390625,-75.1953125,-10.25390625,-51.26953125,-620.60546875
1767593588480,1767593588.448375,-12.20703125,-108.3984375,-7.32421875,-61.5234375,-448.73046875
1767593588480,1767593588.4522812,-32.71484375,-58.10546875,-7.32421875,-63.96484375,-429.6875
1767593588480,1767593588.4561875,-66.40625,41.9921875,-13.671875,-67.3828125,-317.3828125
1767593588480,1767593588.4600937,-84.9609375,1.46484375,-13.18359375,-58.10546875,1.46484375
1767593588527,1767593588.448125,-93.75,-20.5078125,-2.44140625,-51.7578125,-6.8359375
1767593588527,1767593588.4520311,-114.2578125,-15.625,-2.44140625,-73.2421875,-252.44140625
1767593588527,1767593588.4559374,-121.09375,-42.48046875,-4.39453125,-76.66015625,-124.0234375
1767593588527,1767593588.4598436,-108.3984375,-58.10546875,-4.39453125,-74.70703125,181.15234375
1767593588527,1767593588.46375,-105.46875,-39.0625,-9.765625,-96.19140625,74.70703125
1767593588527,1767593588.4676561,-94.23828125,-49.31640625,-9.765625,-92.7734375,118.65234375
1767593588527,1767593588.4715624,-93.26171875,-69.3359375,-15.625,-95.21484375,189.94140625
1767593588527,1767593588.4754686,-94.7265625,-51.26953125,-18.5546875,-94.23828125,162.109375
1767593588527,1767593588.479375,-85.44921875,-12.20703125,-18.5546875,-90.33203125,41.015625
1767593588527,1767593588.4832811,-94.23828125,-19.04296875,-21.97265625,-99.12109375,-163.57421875
1767593588527,1767593588.4871874,-89.35546875,-64.94140625,-22.4609375,-90.8203125,-92.28515625
1767593588527,1767593588.4910936,-71.77734375,-116.2109375,-20.5078125,-69.3359375,282.2265625
1767593588568,1767593588.492125,-70.3125,-30.76171875,-24.4140625,-74.21875,69.3359375
1767593588568,1767593588.4960313,-72.265625,-8.30078125,-28.3203125,-71.77734375,-215.8203125
1767593588568,1767593588.4999375,-76.66015625,-69.82421875,-27.83203125,-64.94140625,-131.34765625
1767593588568,1767593588.5038438,-66.40625,-43.9453125,-33.203125,-71.2890625,-68.84765625
1767593588568,1767593588.50775,-57.12890625,-38.57421875,-34.1796875,-67.87109375,-16.11328125
1767593588568,1767593588.5116563,-56.15234375,-59.5703125,-36.1328125,-68.84765625,40.52734375
1767593588568,1767593588.5155625,-56.15234375,-97.65625,-42.48046875,-73.2421875,112.3046875
1767593588568,1767593588.5194688,-58.10546875,-127.9296875,-46.38671875,-53.7109375,332.03125
1767593588568,1767593588.523375,-44.921875,-36.62109375,-53.22265625,-52.24609375,125.9765625
1767593588568,1767593588.5272813,-32.71484375,-15.13671875,-53.22265625,-54.6875,-177.734375
1767593588568,1767593588.5311875,-34.66796875,-83.0078125,-46.875,-48.33984375,-187.5
1767593588568,1767593588.5350938,-38.57421875,-51.7578125,-47.36328125,-41.9921875,-121.58203125
1767593588654,1767593588.597125,-30.2734375,-19.04296875,-49.31640625,-40.52734375,-154.78515625
1767593588654,1767593588.6010313,-15.13671875,-59.5703125,-55.17578125,-48.33984375,-203.125
1767593588654,1767593588.6049376,-27.34375,-121.09375,-58.10546875,-49.8046875,76.66015625
1767593588654,1767593588.6088438,-29.78515625,-63.4765625,-59.08203125,-46.38671875,42.48046875
1767593588654,1767593588.61275,-18.06640625,-18.5546875,-59.5703125,-35.15625,-205.078125
1767593588654,1767593588.6166563,-15.13671875,-76.171875,-62.01171875,-37.109375,78.61328125
1767593588654,1767593588.6205626,-11.71875,-98.14453125,-72.265625,-51.7578125,233.88671875
1767593588654,1767593588.6244688,-22.4609375,-68.359375,-73.73046875,-44.921875,-45.41015625
1767593588654,1767593588.628375,-16.11328125,-75.68359375,-69.82421875,-26.3671875,-180.17578125
1767593588654,1767593588.6322813,-7.8125,-99.12109375,-71.2890625,-23.4375,-186.5234375
1767593588655,1767593588.6361876,-14.16015625,-146.484375,-76.171875,-24.4140625,142.578125
1767593588655,1767593588.6400938,-16.6015625,-84.47265625,-75.68359375,-28.3203125,26.85546875
1767593588655,1767593588.601125,-4.8828125,-53.22265625,-77.1484375,-31.25,-364.74609375
1767593588655,1767593588.6050313,-9.27734375,-94.23828125,-83.0078125,-24.4140625,-250.48828125
1767593588655,1767593588.6089375,-3.90625,-82.51953125,-82.03125,-17.578125,-120.60546875
1767593588655,1767593588.6128438,0.48828125,-80.56640625,-78.61328125,-23.4375,-293.9453125
1767593588655,1767593588.61675,-5.859375,-96.19140625,-82.03125,-20.99609375,-264.16015625
1767593588655,1767593588.6206563,3.41796875,-120.60546875,-80.56640625,-11.23046875,57.12890625
1767593588655,1767593588.6245625,12.6953125,-119.140625,-79.58984375,-12.20703125,92.7734375
1767593588655,1767593588.6284688,14.6484375,-106.93359375,-81.54296875,-25.87890625,-83.49609375
1767593588655,1767593588.632375,8.30078125,-111.328125,-79.1015625,-26.85546875,-149.90234375
1767593588655,1767593588.6362813,8.7890625,-152.34375,-76.171875,-9.27734375,-120.1171875
1767593588655,1767593588.6401875,14.6484375,-145.99609375,-77.63671875,-8.7890625,-28.3203125
1767593588655,1767593588.6440938,9.765625,-137.20703125,-72.265625,-18.5546875,11.71875
1767593588721,1767593588.657125,14.16015625,-156.25,-71.77734375,-13.671875,-283.69140625
1767593588721,1767593588.6610312,21.484375,-186.03515625,-69.3359375,5.859375,-121.09375
1767593588721,1767593588.6649375,14.6484375,-131.34765625,-68.84765625,4.39453125,-18.5546875
1767593588721,1767593588.6688437,8.30078125,-124.51171875,-72.265625,-14.6484375,-696.77734375
1767593588721,1767593588.67275,6.8359375,-177.734375,-68.84765625,-19.53125,-1000.0
1767593588721,1767593588.6766562,5.859375,-191.40625,-70.80078125,-17.08984375,-720.21484375
1767593588721,1767593588.6805625,12.6953125,-144.53125,-68.84765625,-11.23046875,-622.55859375
1767593588721,1767593588.6844687,18.5546875,-113.28125,-67.87109375,-11.23046875,-756.8359375
1767593588721,1767593588.688375,8.7890625,-151.3671875,-66.40625,-14.6484375,-817.3828125
1767593588721,1767593588.6922812,7.32421875,-227.05078125,-64.94140625,-4.39453125,-430.17578125
1767593588721,1767593588.6961875,11.71875,-194.82421875,-66.89453125,-2.44140625,-28.3203125
1767593588721,1767593588.7000937,8.7890625,-79.1015625,-64.453125,-11.71875,-288.57421875
1767593588802,1767593588.717125,10.25390625,-88.37890625,-61.03515625,-9.27734375,-592.28515625
1767593588803,1767593588.7210312,16.6015625,-131.34765625,-56.640625,-8.7890625,-556.640625
1767593588803,1767593588.7249374,12.6953125,-112.79296875,-57.6171875,-8.30078125,-556.640625
1767593588803,1767593588.7288437,10.7421875,-84.47265625,-59.08203125,-12.6953125,-421.875
1767593588803,1767593588.73275,15.13671875,-118.1640625,-53.22265625,-14.16015625,139.6484375
1767593588803,1767593588.7366562,11.23046875,-128.90625,-52.734375,-7.8125,472.16796875
1767593588803,1767593588.7405624,7.32421875,-78.61328125,-54.19921875,-9.27734375,288.57421875
1767593588803,1767593588.7444687,1.46484375,-89.35546875,-55.17578125,-11.23046875,268.06640625
1767593588803,1767593588.748375,7.8125,-111.328125,-57.6171875,-15.13671875,377.9296875
1767593588803,1767593588.7522812,7.32421875,-80.078125,-56.15234375,-19.53125,196.77734375
1767593588803,1767593588.7561874,1.46484375,-50.78125,-53.22265625,-19.04296875,36.1328125
1767593588803,1767593588.7600937,4.8828125,-47.36328125,-48.33984375,-14.6484375,37.109375
1767593588804,1767593588.751125,13.671875,-113.28125,-45.41015625,-10.7421875,256.8359375
1767593588804,1767593588.7550313,14.6484375,-92.28515625,-38.0859375,-9.27734375,408.203125
1767593588804,1767593588.7589376,4.39453125,5.859375,-32.71484375,-16.11328125,87.40234375
1767593588804,1767593588.7628438,4.8828125,-29.296875,-31.25,-10.7421875,-1.953125
1767593588804,1767593588.76675,0.0,-71.2890625,-28.80859375,0.0,231.4453125
1767593588804,1767593588.7706563,-8.7890625,-60.05859375,-28.80859375,-8.30078125,173.33984375
1767593588804,1767593588.7745626,0.9765625,-45.8984375,-31.73828125,-22.94921875,40.52734375
1767593588804,1767593588.7784688,9.765625,-43.45703125,-29.296875,-22.4609375,104.4921875
1767593588804,1767593588.782375,-1.953125,-43.45703125,-27.83203125,-19.53125,213.37890625
1767593588804,1767593588.7862813,2.9296875,-20.5078125,-29.78515625,-27.34375,74.21875
1767593588804,1767593588.7901876,-2.44140625,-36.1328125,-24.4140625,-26.85546875,-94.23828125
1767593588804,1767593588.7940938,-15.13671875,-60.546875,-19.04296875,-17.578125,-66.89453125
1767593588841,1767593588.777125,-21.484375,-35.64453125,-15.625,-18.5546875,108.3984375
1767593588841,1767593588.7810311,-19.04296875,-16.11328125,-12.20703125,-27.34375,161.1328125
1767593588841,1767593588.7849374,-11.23046875,-72.75390625,-8.7890625,-24.90234375,-336.42578125
1767593588841,1767593588.7888436,-11.23046875,-91.796875,-10.7421875,-20.01953125,-699.21875
1767593588841,1767593588.79275,-4.8828125,-58.10546875,-12.6953125,-24.4140625,-614.2578125
1767593588841,1767593588.7966561,3.90625,-61.5234375,-9.765625,-24.90234375,-647.94921875
1767593588841,1767593588.8005624,-11.23046875,-74.21875,-2.9296875,-30.76171875,-715.8203125
1767593588841,1767593588.8044686,-23.4375,-68.84765625,2.44140625,-36.62109375,-591.30859375
1767593588841,1767593588.808375,-13.18359375,-37.59765625,8.30078125,-30.76171875,-517.578125
1767593588841,1767593588.8122811,6.34765625,11.23046875,10.25390625,-27.34375,-580.078125
1767593588841,1767593588.8161874,-7.32421875,15.13671875,8.7890625,-38.57421875,-250.48828125
1767593588841,1767593588.8200936,-25.87890625,-62.5,8.7890625,-37.109375,193.359375
1767593588929,1767593588.869125,-21.484375,-99.12109375,13.671875,-16.11328125,696.77734375
1767593588929,1767593588.8730311,-23.92578125,-22.4609375,16.11328125,-13.18359375,749.51171875
1767593588929,1767593588.8769374,-25.390625,19.04296875,10.7421875,-23.92578125,217.28515625
1767593588929,1767593588.8808436,-32.2265625,-48.828125,12.20703125,-32.2265625,118.65234375
1767593588929,1767593588.88475,-31.73828125,-22.4609375,16.6015625,-33.69140625,179.6875
1767593588929,1767593588.8886561,-22.4609375,-9.765625,19.53125,-23.92578125,208.0078125
1767593588929,1767593588.8925624,-21.97265625,-70.3125,22.94921875,-28.3203125,-280.76171875
1767593588929,1767593588.8964686,-14.16015625,-120.1171875,23.92578125,-26.3671875,-485.3515625
1767593588934,1767593588.900375,-23.4375,-38.0859375,27.34375,-22.4609375,-529.296875
1767593588934,1767593588.9042811,-22.94921875,7.8125,31.73828125,-20.01953125,-743.1640625
1767593588934,1767593588.9081874,-12.6953125,-39.55078125,29.296875,-12.20703125,-613.76953125
1767593588934,1767593588.9120936,-20.5078125,-36.62109375,27.83203125,-26.3671875,-650.390625
1767593588934,1767593588.872125,-17.08984375,-18.06640625,25.87890625,-34.1796875,-724.12109375
1767593588934,1767593588.8760312,-21.97265625,-25.87890625,26.85546875,-28.3203125,-701.66015625
1767593588934,1767593588.8799374,-26.85546875,-32.71484375,31.73828125,-26.3671875,-373.53515625
1767593588934,1767593588.8838437,-28.3203125,-16.6015625,33.69140625,-28.3203125,167.48046875
1767593588934,1767593588.88775,-36.62109375,-42.96875,36.62109375,-20.5078125,181.640625
1767593588934,1767593588.8916562,-26.85546875,-60.05859375,39.55078125,-14.6484375,258.7890625
1767593588934,1767593588.8955624,-12.6953125,-62.5,34.66796875,-15.625,404.78515625
1767593588934,1767593588.8994687,-32.2265625,-58.10546875,28.3203125,-34.66796875,286.1328125
1767593588934,1767593588.903375,-41.015625,-35.15625,25.87890625,-46.875,-27.83203125
1767593588934,1767593588.9072812,-31.25,-48.33984375,24.90234375,-27.83203125,-139.16015625
1767593588934,1767593588.9111874,-23.4375,-83.984375,22.4609375,-21.484375,78.61328125
1767593588934,1767593588.9150937,-23.92578125,-69.3359375,14.16015625,-35.15625,184.08203125
1767593588983,1767593588.929125,-16.11328125,-75.68359375,10.7421875,-34.1796875,-69.82421875
1767593588983,1767593588.9330313,-17.08984375,-102.5390625,8.7890625,-26.3671875,-195.3125
1767593588983,1767593588.9369376,-6.8359375,-116.2109375,7.32421875,-12.6953125,46.38671875
1767593588983,1767593588.9408438,8.30078125,-69.3359375,2.44140625,-15.13671875,117.67578125
1767593588983,1767593588.94475,11.71875,-70.80078125,-4.8828125,-29.296875,-37.59765625
1767593588983,1767593588.9486563,18.06640625,-115.234375,-6.34765625,-24.90234375,42.96875
1767593588983,1767593588.9525626,1.46484375,-166.015625,-9.765625,-4.8828125,437.01171875
1767593588983,1767593588.9564688,-17.578125,-170.8984375,-16.11328125,7.8125,644.04296875
1767593588983,1767593588.960375,-17.08984375,-84.9609375,-19.53125,-6.8359375,400.390625
1767593588983,1767593588.9642813,-4.39453125,-70.80078125,-23.92578125,-11.71875,43.9453125
1767593588983,1767593588.9681876,5.37109375,-97.16796875,-24.4140625,5.37109375,-1.46484375
1767593588984,1767593588.9720938,0.0,-92.28515625,-21.484375,8.30078125,-52.24609375
1767593589052,1767593588.957125,-6.34765625,-121.09375,-25.87890625,2.44140625,-136.23046875
1767593589052,1767593588.9610312,-6.8359375,-156.73828125,-27.83203125,1.953125,-159.66796875
1767593589052,1767593588.9649374,-11.23046875,-159.1796875,-30.76171875,9.27734375,-76.66015625
1767593589052,1767593588.9688437,0.0,-146.97265625,-35.64453125,13.671875,45.41015625
1767593589053,1767593588.97275,-1.46484375,-152.34375,-36.62109375,6.8359375,22.4609375
1767593589053,1767593588.9766562,-3.41796875,-195.3125,-34.66796875,3.41796875,42.96875
1767593589053,1767593588.9805624,0.48828125,-185.546875,-31.73828125,9.27734375,137.20703125
1767593589053,1767593588.9844687,2.44140625,-151.85546875,-34.1796875,20.01953125,173.828125
1767593589053,1767593588.988375,2.9296875,-138.671875,-33.69140625,19.04296875,87.40234375
1767593589053,1767593588.9922812,2.44140625,-205.56640625,-33.203125,12.20703125,163.57421875
1767593589053,1767593588.9961874,6.8359375,-257.32421875,-34.66796875,24.4140625,369.140625
1767593589053,1767593589.0000937,2.44140625,-130.859375,-33.203125,37.59765625,51.26953125
1767593589084,1767593589.017125,4.39453125,-95.21484375,-35.64453125,32.2265625,-191.89453125
1767593589084,1767593589.0210311,10.7421875,-171.875,-39.55078125,11.71875,23.92578125
1767593589084,1767593589.0249374,10.7421875,-125.0,-37.59765625,5.37109375,-90.33203125
1767593589084,1767593589.0288436,12.20703125,-67.3828125,-37.109375,17.08984375,-187.01171875
1767593589084,1767593589.03275,15.13671875,-105.95703125,-36.62109375,17.578125,-331.54296875
1767593589085,1767593589.0366561,12.20703125,-134.765625,-36.62109375,14.6484375,-664.55078125
1767593589085,1767593589.0405624,5.37109375,-87.890625,-32.71484375,5.859375,-722.16796875
1767593589085,1767593589.0444686,5.859375,-58.59375,-33.203125,1.953125,-681.640625
1767593589085,1767593589.048375,5.37109375,-55.17578125,-34.66796875,8.7890625,-651.85546875
1767593589085,1767593589.0522811,-3.90625,-38.0859375,-35.15625,0.48828125,-576.171875
1767593589085,1767593589.0561874,-2.44140625,18.5546875,-32.71484375,-3.41796875,-434.5703125
1767593589085,1767593589.0600936,3.90625,21.484375,-26.85546875,2.44140625,-77.1484375
1767593589174,1767593589.062125,5.859375,-9.27734375,-27.83203125,4.39453125,165.52734375
1767593589174,1767593589.0660312,11.23046875,12.6953125,-29.296875,6.34765625,311.5234375
1767593589174,1767593589.0699375,15.625,17.578125,-29.296875,3.41796875,181.640625
1767593589174,1767593589.0738437,15.13671875,19.04296875,-26.85546875,4.39453125,-1.953125
1767593589174,1767593589.07775,16.6015625,-9.27734375,-26.3671875,9.27734375,105.95703125
1767593589174,1767593589.0816562,17.08984375,-46.875,-28.3203125,13.18359375,729.98046875
1767593589174,1767593589.0855625,13.18359375,38.57421875,-31.73828125,1.46484375,710.9375
1767593589174,1767593589.0894687,8.30078125,57.12890625,-32.2265625,-8.7890625,160.64453125
1767593589174,1767593589.093375,7.8125,24.4140625,-35.15625,-8.30078125,124.0234375
1767593589174,1767593589.0972812,5.37109375,71.77734375,-41.015625,-11.23046875,114.74609375
1767593589174,1767593589.1011875,2.44140625,82.51953125,-38.57421875,-13.18359375,2.9296875
1767593589174,1767593589.1050937,-1.46484375,51.7578125,-38.0859375,-26.3671875,-145.01953125
1767593589192,1767593589.140125,-4.39453125,-12.6953125,-40.52734375,-24.90234375,19.04296875
1767593589193,1767593589.1440313,-12.20703125,17.08984375,-40.52734375,-11.23046875,302.734375
1767593589193,1767593589.1479375,-15.625,100.5859375,-45.8984375,-30.2734375,-41.015625
1767593589193,1767593589.1518438,-14.16015625,58.59375,-46.875,-42.96875,-263.18359375
1767593589193,1767593589.15575,-19.53125,23.92578125,-45.8984375,-34.1796875,-258.7890625
1767593589193,1767593589.1596563,-17.578125,49.31640625,-46.38671875,-26.85546875,-154.296875
1767593589193,1767593589.1635625,-19.04296875,71.77734375,-48.33984375,-34.1796875,16.11328125
1767593589193,1767593589.1674688,-23.92578125,39.0625,-43.45703125,-41.9921875,-8.30078125
1767593589193,1767593589.171375,-26.85546875,26.3671875,-41.9921875,-40.52734375,-132.8125
1767593589193,1767593589.1752813,-32.71484375,70.80078125,-47.36328125,-34.66796875,-237.79296875
1767593589193,1767593589.1791875,-22.94921875,63.96484375,-48.33984375,-31.73828125,-159.1796875
1767593589193,1767593589.1830938,-16.11328125,24.4140625,-51.26953125,-41.015625,-44.43359375
1767593589224,1767593589.152125,-26.85546875,31.25,-56.15234375,-52.734375,-113.28125
1767593589224,1767593589.1560311,-43.45703125,38.0859375,-54.6875,-43.9453125,-250.48828125
1767593589224,1767593589.1599374,-31.73828125,8.30078125,-58.10546875,-38.0859375,-224.12109375
1767593589224,1767593589.1638436,-13.18359375,-33.203125,-54.6875,-37.59765625,-105.95703125
1767593589224,1767593589.16775,-23.4375,-43.9453125,-50.29296875,-37.59765625,-19.04296875
1767593589224,1767593589.1716561,-44.921875,-38.57421875,-56.15234375,-42.48046875,-13.671875
1767593589224,1767593589.1755624,-27.34375,-37.59765625,-61.03515625,-34.66796875,96.19140625
1767593589224,1767593589.1794686,0.48828125,-56.15234375,-61.5234375,-14.16015625,138.18359375
1767593589224,1767593589.183375,-45.8984375,-30.76171875,-64.453125,-42.48046875,30.2734375
1767593589224,1767593589.1872811,-66.40625,-21.484375,-60.05859375,-65.91796875,-125.9765625
1767593589224,1767593589.1911874,-22.94921875,-44.43359375,-54.6875,-39.55078125,-127.9296875
1767593589224,1767593589.1950936,-31.73828125,-64.94140625,-49.8046875,-31.73828125,78.125
1767593589250,1767593589.200125,-40.0390625,-62.98828125,-44.921875,-34.66796875,73.2421875
1767593589250,1767593589.2040312,-32.71484375,-68.84765625,-42.96875,-39.0625,-54.6875
1767593589250,1767593589.2079375,-36.1328125,-57.12890625,-34.66796875,-55.6640625,-22.94921875
1767593589250,1767593589.2118437,-42.96875,-101.5625,-29.296875,-52.734375,193.359375
1767593589250,1767593589.21575,-45.8984375,-135.25390625,-31.25,-41.015625,468.26171875
1767593589250,1767593589.2196562,-47.36328125,-68.84765625,-31.73828125,-40.0390625,359.86328125
1767593589250,1767593589.2235625,-49.8046875,-31.25,-25.390625,-44.43359375,47.8515625
1767593589250,1767593589.2274687,-45.8984375,-47.8515625,-19.53125,-43.45703125,-25.87890625
1767593589250,1767593589.231375,-41.9921875,-40.52734375,-20.01953125,-45.8984375,-85.44921875
1767593589250,1767593589.2352812,-48.33984375,-60.05859375,-21.484375,-51.7578125,-262.20703125
1767593589250,1767593589.2391875,-48.33984375,-103.515625,-15.625,-42.96875,-272.4609375
1767593589250,1767593589.2430937,-45.8984375,-134.765625,-10.25390625,-22.4609375,72.75390625
1767593589356,1767593589.242125,-36.1328125,-68.359375,-12.6953125,-17.08984375,-67.3828125
1767593589357,1767593589.2460313,-46.875,-65.4296875,-21.97265625,-50.29296875,-280.2734375
1767593589357,1767593589.2499375,-45.41015625,-114.2578125,-24.4140625,-62.01171875,-277.83203125
1767593589357,1767593589.2538438,-34.66796875,-84.47265625,-24.4140625,-44.921875,-236.328125
1767593589357,1767593589.25775,-37.109375,-86.9140625,-28.3203125,-42.96875,-77.1484375
1767593589357,1767593589.2616563,-29.296875,-106.4453125,-29.78515625,-59.5703125,63.4765625
1767593589357,1767593589.2655625,-10.7421875,-149.90234375,-28.80859375,-60.05859375,-43.45703125
1767593589357,1767593589.2694688,5.37109375,-216.796875,-29.78515625,-38.57421875,-293.45703125
1767593589357,1767593589.273375,-8.7890625,-98.6328125,-36.1328125,-31.73828125,-401.3671875
1767593589357,1767593589.2772813,-33.69140625,-22.94921875,-40.52734375,-30.2734375,-292.96875
1767593589357,1767593589.2811875,-44.921875,-107.91015625,-45.41015625,-21.97265625,-117.1875
1767593589357,1767593589.2850938,-58.59375,-113.76953125,-49.31640625,-32.71484375,-102.5390625
1767593589366,1767593589.306125,-68.84765625,-111.81640625,-52.24609375,-29.296875,-136.71875
1767593589366,1767593589.3100312,-47.36328125,-145.99609375,-52.734375,-18.06640625,-160.15625
1767593589366,1767593589.3139374,-40.0390625,-169.921875,-55.17578125,-37.109375,-79.1015625
1767593589366,1767593589.3178437,-29.296875,-151.3671875,-58.10546875,-47.8515625,-118.1640625
1767593589366,1767593589.32175,-15.13671875,-145.99609375,-57.12890625,-39.55078125,-210.9375
1767593589366,1767593589.3256562,-23.4375,-172.36328125,-57.6171875,-40.52734375,110.3515625
1767593589366,1767593589.3295624,-26.3671875,-187.5,-62.98828125,-43.45703125,358.3984375
1767593589366,1767593589.3334687,-18.5546875,-166.50390625,-58.59375,-38.0859375,36.62109375
1767593589366,1767593589.337375,-16.11328125,-125.0,-53.7109375,-24.90234375,-138.18359375
1767593589366,1767593589.3412812,-2.9296875,-145.01953125,-54.19921875,-14.6484375,-67.3828125
1767593589366,1767593589.3451874,9.765625,-174.8046875,-53.22265625,-10.7421875,2.44140625
1767593589366,1767593589.3490937,0.0,-148.92578125,-50.29296875,-24.90234375,-160.64453125
1767593589429,1767593589.333125,-10.25390625,-136.23046875,-53.22265625,-28.3203125,-207.03125
1767593589429,1767593589.3370314,1.46484375,-160.15625,-56.15234375,-19.53125,52.24609375
1767593589429,1767593589.3409376,16.6015625,-150.390625,-57.12890625,-20.5078125,131.8359375
1767593589429,1767593589.3448439,8.7890625,-127.44140625,-51.7578125,-23.4375,21.484375
1767593589429,1767593589.34875,5.37109375,-142.578125,-46.38671875,-21.97265625,-54.6875
1767593589429,1767593589.3526564,2.9296875,-151.3671875,-50.78125,-14.16015625,41.015625
1767593589429,1767593589.3565626,16.6015625,-125.0,-54.19921875,-9.27734375,248.046875
1767593589429,1767593589.3604689,27.34375,-112.3046875,-54.19921875,-16.11328125,188.4765625
1767593589429,1767593589.364375,24.90234375,-98.6328125,-45.41015625,-7.8125,10.25390625
1767593589429,1767593589.3682814,27.34375,-128.41796875,-38.0859375,14.6484375,77.63671875
1767593589429,1767593589.3721876,29.296875,-165.0390625,-37.59765625,26.85546875,481.4453125
1767593589429,1767593589.3760939,26.85546875,-93.26171875,-37.109375,15.13671875,418.45703125
1767593589449,1767593589.395125,17.578125,-45.8984375,-39.0625,-0.48828125,-125.0
1767593589449,1767593589.3990312,13.18359375,-99.12109375,-39.55078125,3.41796875,-146.97265625
1767593589449,1767593589.4029374,20.5078125,-61.03515625,-35.64453125,5.859375,-138.18359375
1767593589449,1767593589.4068437,16.11328125,-35.15625,-33.203125,-0.48828125,-223.14453125
1767593589449,1767593589.41075,17.08984375,-77.63671875,-33.203125,-9.765625,-149.4140625
1767593589449,1767593589.4146562,31.25,-140.625,-30.76171875,0.48828125,173.33984375
1767593589449,1767593589.4185624,27.83203125,-55.6640625,-24.4140625,14.16015625,356.4453125
1767593589449,1767593589.4224687,15.13671875,17.08984375,-25.87890625,0.0,-64.453125
1767593589449,1767593589.426375,22.4609375,-44.921875,-25.390625,-8.30078125,-222.16796875
1767593589449,1767593589.4302812,38.0859375,-52.734375,-23.4375,-0.9765625,-70.80078125
1767593589449,1767593589.4341874,24.90234375,2.9296875,-17.578125,7.32421875,-116.2109375
1767593589449,1767593589.4380937,5.859375,-5.37109375,-11.71875,-6.34765625,-188.96484375
1767593589539,1767593589.467125,14.16015625,-51.26953125,-9.27734375,-16.11328125,-17.578125
1767593589539,1767593589.4710312,22.94921875,-31.73828125,-4.8828125,-11.23046875,-2.9296875
1767593589539,1767593589.4749374,6.34765625,17.08984375,0.0,-6.8359375,-217.28515625
1767593589539,1767593589.4788437,11.71875,6.8359375,-1.46484375,-1.953125,-263.671875
1767593589539,1767593589.48275,17.578125,-41.9921875,2.44140625,-3.41796875,-217.7734375
1767593589539,1767593589.4866562,-1.953125,-43.45703125,8.30078125,-9.765625,-157.2265625
1767593589539,1767593589.4905624,2.9296875,-13.671875,6.34765625,-4.39453125,-118.65234375
1767593589539,1767593589.4944687,20.5078125,3.90625,8.7890625,-0.48828125,8.30078125
1767593589539,1767593589.498375,9.765625,-24.90234375,14.16015625,1.953125,3.90625
1767593589539,1767593589.5022812,-8.7890625,-91.796875,15.13671875,2.9296875,135.25390625
1767593589539,1767593589.5061874,2.44140625,13.671875,11.71875,-12.20703125,99.12109375
1767593589539,1767593589.5100937,-1.953125,62.01171875,14.6484375,-18.5546875,-160.15625
1767593589539,1767593589.486125,4.8828125,-22.4609375,17.578125,-16.11328125,-306.15234375
1767593589539,1767593589.4900312,7.32421875,-5.37109375,16.11328125,-22.4609375,-369.140625
1767593589539,1767593589.4939375,-21.97265625,-19.53125,19.04296875,-30.76171875,-325.68359375
1767593589539,1767593589.4978437,-27.83203125,-42.48046875,17.08984375,-32.71484375,-214.35546875
1767593589539,1767593589.50175,-28.80859375,-40.52734375,15.13671875,-29.296875,-5.37109375
1767593589539,1767593589.5056562,-26.85546875,-27.34375,20.5078125,-34.1796875,40.52734375
1767593589539,1767593589.5095625,-9.765625,-21.484375,24.90234375,-29.296875,-59.08203125
1767593589539,1767593589.5134687,1.953125,-40.52734375,24.90234375,-23.4375,-132.32421875
1767593589539,1767593589.517375,9.765625,-41.9921875,28.3203125,-21.484375,-185.05859375
1767593589539,1767593589.5212812,-15.625,-7.32421875,28.3203125,-30.76171875,-275.87890625
1767593589539,1767593589.5251875,-32.71484375,-26.3671875,23.4375,-38.57421875,-266.6015625
1767593589539,1767593589.5290937,-26.85546875,-61.5234375,25.390625,-34.1796875,-270.01953125
1767593589592,1767593589.527125,-34.66796875,-43.9453125,27.83203125,-40.52734375,-156.73828125
1767593589592,1767593589.5310311,-41.015625,-20.01953125,31.73828125,-47.8515625,-103.02734375
1767593589592,1767593589.5349374,-32.2265625,-47.8515625,33.69140625,-46.38671875,-172.36328125
1767593589592,1767593589.5388436,-31.73828125,-80.56640625,31.73828125,-49.8046875,-258.30078125
1767593589592,1767593589.54275,-40.0390625,-59.08203125,34.66796875,-46.38671875,-215.33203125
1767593589592,1767593589.5466561,-40.0390625,-41.9921875,36.62109375,-49.8046875,-75.68359375
1767593589592,1767593589.5505624,-57.6171875,-57.12890625,34.1796875,-53.22265625,-112.79296875
1767593589592,1767593589.5544686,-67.87109375,-82.51953125,32.71484375,-47.8515625,-88.8671875
1767593589592,1767593589.558375,-45.8984375,-123.046875,40.52734375,-22.4609375,441.40625
1767593589592,1767593589.5622811,-45.8984375,-77.1484375,39.0625,-10.7421875,500.9765625
1767593589592,1767593589.5661874,-57.12890625,-0.48828125,33.203125,-37.59765625,-103.515625
1767593589592,1767593589.5700936,-69.82421875,-46.875,31.25,-62.5,-300.29296875
1767593589638,1767593589.588125,-90.8203125,-28.3203125,25.87890625,-60.546875,-264.16015625
1767593589639,1767593589.5920312,-83.49609375,-2.44140625,20.99609375,-52.24609375,-259.27734375
1767593589643,1767593589.5959375,-59.5703125,-50.78125,11.71875,-57.12890625,-207.03125
1767593589643,1767593589.5998437,-63.96484375,-82.03125,14.6484375,-58.10546875,-179.19921875
1767593589644,1767593589.60375,-90.8203125,-49.8046875,10.7421875,-70.3125,-265.13671875
1767593589644,1767593589.6076562,-95.21484375,-50.78125,1.953125,-70.3125,-221.19140625
1767593589644,1767593589.6115625,-88.8671875,-86.42578125,4.39453125,-58.59375,-55.6640625
1767593589644,1767593589.6154687,-87.890625,-105.46875,6.34765625,-63.4765625,-91.30859375
1767593589644,1767593589.619375,-77.63671875,-76.171875,8.7890625,-53.22265625,-201.171875
1767593589644,1767593589.6232812,-79.1015625,-41.9921875,0.0,-49.8046875,-249.51171875
1767593589644,1767593589.6271875,-74.21875,-88.8671875,-6.8359375,-56.640625,-202.63671875
1767593589644,1767593589.6310937,-71.2890625,-164.55078125,-1.953125,-52.734375,95.21484375
1767593589667,1767593589.617125,-69.3359375,-82.51953125,3.90625,-49.31640625,4.8828125
1767593589667,1767593589.6210313,-52.24609375,-44.43359375,0.48828125,-41.50390625,-206.54296875
1767593589667,1767593589.6249375,-52.24609375,-99.609375,-13.671875,-42.96875,-154.78515625
1767593589667,1767593589.6288438,-54.6875,-90.8203125,-13.18359375,-43.9453125,-135.7421875
1767593589667,1767593589.63275,-59.5703125,-109.86328125,-11.23046875,-34.1796875,-265.625
1767593589667,1767593589.6366563,-59.08203125,-169.921875,-16.6015625,-30.76171875,-748.046875
1767593589667,1767593589.6405625,-55.6640625,-165.0390625,-20.99609375,-26.3671875,-971.19140625
1767593589667,1767593589.6444688,-53.22265625,-106.93359375,-26.3671875,-26.3671875,-486.81640625
1767593589667,1767593589.648375,-56.15234375,-71.2890625,-28.80859375,-35.15625,-198.2421875
1767593589667,1767593589.6522813,-50.29296875,-89.35546875,-29.78515625,-29.296875,-349.609375
1767593589667,1767593589.6561875,-46.38671875,-150.87890625,-37.109375,-17.08984375,-9.27734375
1767593589667,1767593589.6600938,-46.875,-199.21875,-40.0390625,-17.08984375,422.36328125
1767593589731,1767593589.678125,-41.50390625,-104.98046875,-46.875,-22.4609375,50.78125
1767593589731,1767593589.6820312,-34.1796875,-86.42578125,-49.8046875,-20.01953125,-236.81640625
1767593589731,1767593589.6859374,-30.76171875,-141.6015625,-42.48046875,-2.44140625,-62.98828125
1767593589731,1767593589.6898437,-36.62109375,-116.69921875,-43.45703125,-4.8828125,34.66796875
1767593589731,1767593589.69375,-36.62109375,-121.58203125,-51.26953125,-18.5546875,3.90625
1767593589731,1767593589.6976562,-30.76171875,-177.734375,-54.6875,-13.18359375,29.296875
1767593589731,1767593589.7015624,-25.87890625,-212.890625,-51.7578125,1.46484375,433.59375
1767593589731,1767593589.7054687,-18.5546875,-127.9296875,-51.7578125,4.39453125,432.12890625
1767593589731,1767593589.709375,-23.92578125,-110.3515625,-56.15234375,-7.8125,-15.625
1767593589731,1767593589.7132812,-36.1328125,-177.734375,-55.6640625,-16.11328125,-121.58203125
1767593589731,1767593589.7171874,-24.90234375,-162.109375,-49.8046875,-10.7421875,-44.43359375
1767593589731,1767593589.7210937,-2.44140625,-125.0,-54.6875,-6.8359375,12.20703125
1767593589786,1767593589.708125,-1.46484375,-133.7890625,-58.10546875,-6.34765625,14.16015625
1767593589786,1767593589.7120314,-6.34765625,-169.921875,-58.10546875,-13.18359375,29.296875
1767593589786,1767593589.7159376,-3.90625,-141.11328125,-61.03515625,-2.44140625,6.8359375
1767593589786,1767593589.7198439,1.953125,-79.1015625,-60.546875,15.13671875,7.32421875
1767593589786,1767593589.72375,3.41796875,-107.91015625,-57.12890625,10.7421875,5.37109375
1767593589786,1767593589.7276564,-1.953125,-145.99609375,-55.17578125,1.953125,20.5078125
1767593589786,1767593589.7315626,-2.9296875,-118.1640625,-53.22265625,6.8359375,-28.3203125
1767593589786,1767593589.7354689,0.9765625,-86.42578125,-54.6875,11.23046875,-133.7890625
1767593589786,1767593589.739375,2.44140625,-57.12890625,-57.6171875,-1.46484375,-240.234375
1767593589786,1767593589.7432814,9.765625,-108.3984375,-54.19921875,0.48828125,-135.25390625
1767593589786,1767593589.7471876,6.34765625,-146.97265625,-52.734375,13.671875,310.546875
1767593589786,1767593589.7510939,0.48828125,-27.83203125,-57.6171875,-2.9296875,182.6171875
1767593589893,1767593589.827125,7.32421875,-9.27734375,-63.4765625,-5.859375,10.7421875
1767593589893,1767593589.8310313,7.8125,-64.453125,-62.5,-2.44140625,89.35546875
1767593589893,1767593589.8349376,9.27734375,-49.31640625,-55.6640625,3.41796875,-73.2421875
1767593589893,1767593589.8388438,6.34765625,-39.55078125,-53.22265625,9.27734375,-99.12109375
1767593589893,1767593589.84275,8.7890625,-49.31640625,-51.7578125,4.39453125,186.5234375
1767593589893,1767593589.8466563,15.625,-104.98046875,-50.29296875,5.37109375,502.44140625
1767593589893,1767593589.8505626,7.8125,-70.80078125,-53.7109375,0.48828125,242.1875
1767593589893,1767593589.8544688,3.41796875,-0.48828125,-60.546875,-10.25390625,-272.4609375
1767593589893,1767593589.858375,6.34765625,-23.92578125,-61.5234375,-6.8359375,-68.359375
1767593589893,1767593589.8622813,2.44140625,-50.78125,-64.94140625,-12.20703125,68.359375
1767593589893,1767593589.8661876,1.953125,-38.57421875,-71.77734375,-27.83203125,-280.2734375
1767593589893,1767593589.8700938,1.953125,-38.57421875,-71.2890625,-28.80859375,-407.2265625
1767593589937,1767593589.872125,-8.7890625,-49.31640625,-71.77734375,-21.484375,-333.984375
1767593589937,1767593589.8760312,-10.7421875,-28.80859375,-71.77734375,-24.4140625,-193.359375
1767593589937,1767593589.8799374,-8.7890625,-17.08984375,-77.1484375,-36.62109375,-229.98046875
1767593589937,1767593589.8838437,-15.625,-34.1796875,-83.0078125,-34.66796875,-276.3671875
1767593589937,1767593589.88775,-15.13671875,-52.24609375,-75.68359375,-22.94921875,-47.36328125
1767593589937,1767593589.8916562,-4.8828125,-33.203125,-66.89453125,-16.11328125,232.91015625
1767593589937,1767593589.8955624,-5.859375,-13.18359375,-68.359375,-32.2265625,66.40625
1767593589937,1767593589.8994687,-15.13671875,-33.203125,-63.4765625,-41.9921875,-142.08984375
1767593589937,1767593589.903375,-15.13671875,-42.48046875,-58.10546875,-28.80859375,64.453125
1767593589937,1767593589.9072812,-14.6484375,7.8125,-65.91796875,-30.76171875,172.8515625
1767593589937,1767593589.9111874,-14.6484375,21.97265625,-74.21875,-38.57421875,-29.296875
1767593589937,1767593589.9150937,-22.4609375,-17.578125,-70.80078125,-44.43359375,-183.10546875
1767593589955,1767593589.905125,-20.99609375,-53.22265625,-70.3125,-40.52734375,-92.28515625
1767593589955,1767593589.9090312,-17.578125,-5.859375,-74.70703125,-34.66796875,-93.75
1767593589955,1767593589.9129374,-23.92578125,18.5546875,-77.1484375,-35.15625,-155.2734375
1767593589955,1767593589.9168437,-23.4375,-35.15625,-71.2890625,-38.0859375,-203.61328125
1767593589955,1767593589.92075,-26.3671875,-68.84765625,-65.91796875,-44.921875,-80.078125
1767593589955,1767593589.9246562,-25.87890625,-30.2734375,-69.82421875,-44.921875,88.37890625
1767593589955,1767593589.9285624,-20.5078125,-2.44140625,-74.70703125,-42.96875,68.84765625
1767593589955,1767593589.9324687,-28.80859375,-20.01953125,-72.265625,-48.33984375,-5.37109375
1767593589955,1767593589.936375,-27.34375,-32.2265625,-68.84765625,-52.24609375,27.34375
1767593589955,1767593589.9402812,-14.6484375,-7.8125,-70.3125,-47.8515625,-58.10546875
1767593589955,1767593589.9441874,-19.04296875,17.08984375,-74.21875,-51.7578125,-170.41015625
1767593589955,1767593589.9480937,-22.4609375,-15.13671875,-70.3125,-58.10546875,-104.00390625
1767593589984,1767593589.917125,-22.4609375,-27.34375,-66.89453125,-55.17578125,-145.99609375
1767593589984,1767593589.9210312,-31.25,0.48828125,-67.3828125,-43.9453125,-285.64453125
1767593589984,1767593589.9249375,-25.87890625,3.90625,-66.89453125,-43.45703125,-287.59765625
1767593589984,1767593589.9288437,-28.80859375,-41.50390625,-68.84765625,-50.29296875,-191.89453125
1767593589984,1767593589.93275,-36.62109375,-88.37890625,-70.80078125,-50.29296875,268.06640625
1767593589984,1767593589.9366562,-34.66796875,-21.97265625,-76.171875,-67.3828125,160.15625
1767593589984,1767593589.9405625,-37.109375,-1.953125,-76.171875,-65.4296875,-113.76953125
1767593589984,1767593589.9444687,-28.80859375,-26.85546875,-72.265625,-47.8515625,111.328125
1767593589985,1767593589.948375,-24.4140625,-5.37109375,-68.84765625,-50.78125,131.8359375
1767593589985,1767593589.9522812,-15.13671875,-7.8125,-66.89453125,-52.734375,-135.25390625
1767593589985,1767593589.9561875,-13.671875,-22.4609375,-68.84765625,-56.15234375,-274.90234375
1767593589985,1767593589.9600937,-20.01953125,-86.9140625,-69.82421875,-52.734375,-24.90234375
1767593590020,1767593589.963125,-36.62109375,-110.83984375,-68.84765625,-44.43359375,290.0390625
1767593590025,1767593589.9670312,-38.57421875,-15.13671875,-71.77734375,-53.7109375,-138.671875
1767593590026,1767593589.9709375,-0.9765625,-32.2265625,-70.80078125,-36.1328125,-318.84765625
1767593590026,1767593589.9748437,9.27734375,-88.37890625,-72.265625,-21.97265625,-71.2890625
1767593590026,1767593589.97875,-18.06640625,-52.24609375,-75.1953125,-49.31640625,-152.83203125
1767593590026,1767593589.9826562,-24.4140625,-72.265625,-73.2421875,-57.12890625,-210.44921875
1767593590026,1767593589.9865625,0.9765625,-90.33203125,-64.453125,-47.36328125,-151.85546875
1767593590026,1767593589.9904687,-11.23046875,-118.65234375,-57.12890625,-40.52734375,81.0546875
1767593590026,1767593589.994375,-17.578125,-137.6953125,-53.22265625,-21.484375,410.64453125
1767593590026,1767593589.9982812,0.0,-53.7109375,-49.31640625,-21.97265625,133.30078125
1767593590026,1767593590.0021875,-8.7890625,-40.52734375,-44.43359375,-26.85546875,-245.60546875
1767593590026,1767593590.0060937,-6.8359375,-74.21875,-43.45703125,-11.23046875,-218.75
1767593590042,1767593589.992125,-1.953125,-58.59375,-40.0390625,-2.44140625,-225.09765625
1767593590042,1767593589.9960313,-8.7890625,-79.58984375,-33.69140625,-12.6953125,-239.2578125
1767593590042,1767593589.9999375,-11.71875,-140.625,-36.62109375,-16.6015625,-188.4765625
1767593590042,1767593590.0038438,-3.90625,-176.7578125,-37.59765625,-3.41796875,189.94140625
1767593590042,1767593590.00775,1.46484375,-93.26171875,-35.15625,-2.44140625,161.62109375
1767593590042,1767593590.0116563,0.9765625,-89.35546875,-30.76171875,-5.859375,44.43359375
1767593590042,1767593590.0155625,-2.9296875,-141.11328125,-23.92578125,-8.7890625,140.13671875
1767593590042,1767593590.0194688,11.23046875,-116.69921875,-16.6015625,0.0,-18.06640625
1767593590042,1767593590.023375,18.5546875,-93.75,-7.32421875,14.6484375,-240.234375
1767593590042,1767593590.0272813,8.7890625,-114.2578125,-3.90625,18.5546875,-314.94140625
1767593590042,1767593590.0311875,9.765625,-187.01171875,0.48828125,13.18359375,-5.859375
1767593590042,1767593590.0350938,26.3671875,-208.984375,-1.953125,26.3671875,378.41796875
1767593590193,1767593590.082125,29.78515625,-87.40234375,-3.90625,24.90234375,46.38671875
1767593590193,1767593590.0860312,18.5546875,-95.21484375,0.0,9.765625,-153.80859375
1767593590193,1767593590.0899374,12.20703125,-160.15625,1.953125,3.41796875,-104.4921875
1767593590193,1767593590.0938437,0.48828125,-125.9765625,-0.48828125,5.859375,-189.453125
1767593590193,1767593590.09775,-7.32421875,-100.09765625,-0.9765625,15.625,-163.0859375
1767593590193,1767593590.1016562,1.46484375,-122.0703125,1.46484375,12.6953125,-33.69140625
1767593590193,1767593590.1055624,28.3203125,-165.52734375,3.41796875,10.7421875,264.6484375
1767593590193,1767593590.1094687,30.2734375,-95.703125,4.8828125,3.90625,255.859375
1767593590193,1767593590.113375,15.13671875,-33.203125,6.8359375,3.41796875,-95.703125
1767593590193,1767593590.1172812,3.41796875,-82.51953125,9.765625,1.46484375,-159.1796875
1767593590193,1767593590.1211874,-2.44140625,-94.23828125,10.7421875,-5.859375,-80.56640625
1767593590193,1767593590.1250937,4.39453125,-61.5234375,10.7421875,-8.7890625,-272.4609375
1767593590251,1767593590.173125,13.671875,-55.6640625,8.7890625,-6.8359375,-216.30859375
1767593590251,1767593590.1770313,10.7421875,-77.1484375,5.859375,0.9765625,-41.015625
1767593590251,1767593590.1809375,1.46484375,-78.125,10.7421875,14.16015625,-60.546875
1767593590251,1767593590.1848438,-0.9765625,-58.59375,15.13671875,23.92578125,-181.15234375
1767593590251,1767593590.18875,-14.6484375,-80.56640625,14.16015625,23.92578125,-222.65625
1767593590251,1767593590.1926563,-27.83203125,-99.12109375,10.25390625,25.87890625,0.48828125
1767593590251,1767593590.1965625,-24.4140625,-72.265625,10.7421875,23.92578125,72.75390625
1767593590251,1767593590.2004688,-10.7421875,-55.17578125,12.6953125,11.23046875,-125.48828125
1767593590251,1767593590.204375,-6.8359375,-68.359375,6.34765625,6.34765625,-181.640625
1767593590251,1767593590.2082813,0.48828125,-71.2890625,5.37109375,15.13671875,-77.63671875
1767593590251,1767593590.2121875,13.671875,-29.296875,14.6484375,13.671875,-82.51953125
1767593590251,1767593590.2160938,6.8359375,-20.99609375,17.08984375,-7.32421875,-163.0859375
1767593590274,1767593590.220125,2.9296875,-84.47265625,19.53125,-8.30078125,-676.7578125
1767593590274,1767593590.2240312,5.859375,-111.328125,20.99609375,-0.48828125,-874.51171875
1767593590274,1767593590.2279375,7.8125,-48.828125,21.484375,5.37109375,-775.87890625
1767593590274,1767593590.2318437,6.8359375,-29.78515625,30.76171875,10.7421875,-863.28125
1767593590274,1767593590.23575,6.34765625,-61.5234375,32.2265625,1.46484375,-796.875
1767593590274,1767593590.2396562,9.27734375,-82.51953125,30.2734375,6.8359375,-419.921875
1767593590274,1767593590.2435625,11.23046875,-45.8984375,31.25,7.32421875,-499.51171875
1767593590274,1767593590.2474687,7.8125,18.5546875,35.15625,-2.44140625,-474.12109375
1767593590274,1767593590.251375,2.44140625,-15.13671875,32.71484375,-7.32421875,-61.5234375
1767593590274,1767593590.2552812,-3.41796875,-55.17578125,26.3671875,-7.8125,52.24609375
1767593590274,1767593590.2591875,-3.90625,-18.5546875,24.90234375,-3.41796875,133.7890625
1767593590274,1767593590.2630937,-10.7421875,-7.32421875,28.3203125,-5.859375,205.56640625
1767593590296,1767593590.232125,-19.53125,-38.57421875,31.73828125,-15.625,75.1953125
1767593590296,1767593590.2360313,-13.671875,-43.45703125,31.73828125,-16.11328125,39.55078125
1767593590296,1767593590.2399375,-5.37109375,-10.25390625,32.71484375,-10.7421875,12.6953125
1767593590296,1767593590.2438438,-6.8359375,-21.484375,29.78515625,-16.11328125,-54.6875
1767593590296,1767593590.24775,-18.5546875,-61.5234375,18.06640625,-26.3671875,23.92578125
1767593590296,1767593590.2516563,-24.90234375,-64.94140625,18.5546875,-25.390625,36.62109375
1767593590296,1767593590.2555625,-21.484375,-31.25,25.390625,-21.97265625,33.203125
1767593590296,1767593590.2594688,-14.16015625,-25.390625,29.296875,-14.6484375,231.93359375
1767593590296,1767593590.263375,-13.18359375,-48.828125,27.83203125,-17.578125,193.359375
1767593590296,1767593590.2672813,-20.01953125,-38.57421875,27.34375,-27.34375,-49.31640625
1767593590302,1767593590.2711875,-21.484375,-5.859375,25.87890625,-26.85546875,-178.22265625
1767593590302,1767593590.2750938,-19.53125,-15.625,20.5078125,-25.87890625,-132.32421875
1767593590325,1767593590.253125,-14.16015625,-56.640625,21.484375,-22.4609375,83.984375
1767593590325,1767593590.2570312,-10.7421875,-46.38671875,23.92578125,-25.390625,95.21484375
1767593590325,1767593590.2609375,-14.16015625,-7.32421875,21.97265625,-31.25,-173.828125
1767593590325,1767593590.2648437,-15.625,-19.04296875,24.90234375,-24.90234375,-199.70703125
1767593590325,1767593590.26875,-13.671875,-90.33203125,20.01953125,-23.92578125,155.76171875
1767593590325,1767593590.2726562,-13.671875,-47.8515625,13.671875,-34.66796875,344.7265625
1767593590325,1767593590.2765625,-13.671875,4.39453125,17.08984375,-33.69140625,79.1015625
1767593590325,1767593590.2804687,-18.06640625,-27.83203125,18.06640625,-22.94921875,5.37109375
1767593590325,1767593590.284375,-27.83203125,-26.3671875,16.6015625,-20.01953125,81.0546875
1767593590325,1767593590.2882812,-27.83203125,-19.53125,16.6015625,-25.87890625,-141.6015625
1767593590325,1767593590.2921875,-25.390625,-48.33984375,12.6953125,-29.296875,-303.7109375
1767593590325,1767593590.2960937,-28.80859375,-76.66015625,9.27734375,-24.90234375,-239.74609375
1767593590327,1767593590.278125,-24.4140625,-58.10546875,6.8359375,-22.94921875,-65.91796875
1767593590327,1767593590.2820313,-27.34375,-30.76171875,4.39453125,-29.78515625,-45.8984375
1767593590327,1767593590.2859375,-32.71484375,-54.19921875,8.30078125,-32.71484375,-174.31640625
1767593590327,1767593590.2898438,-36.1328125,-82.03125,8.30078125,-22.94921875,-94.7265625
1767593590327,1767593590.29375,-42.48046875,-120.60546875,7.32421875,-5.859375,476.07421875
1767593590327,1767593590.2976563,-30.76171875,-92.28515625,7.32421875,-5.859375,750.9765625
1767593590327,1767593590.3015625,-20.5078125,-20.5078125,0.48828125,-30.76171875,307.12890625
1767593590327,1767593590.3054688,-30.2734375,-31.25,-1.46484375,-49.31640625,58.59375
1767593590327,1767593590.309375,-36.62109375,-25.390625,-4.8828125,-53.22265625,-87.40234375
1767593590327,1767593590.3132813,-22.94921875,-20.01953125,-9.765625,-45.8984375,-314.94140625
1767593590327,1767593590.3171875,-12.6953125,-44.921875,-6.8359375,-48.33984375,-386.23046875
1767593590327,1767593590.3210938,-16.6015625,-100.09765625,-9.765625,-50.78125,-291.50390625
1767593590415,1767593590.338125,-3.90625,-148.4375,-13.671875,-21.97265625,161.62109375
1767593590415,1767593590.3420312,-13.671875,-76.171875,-22.4609375,-36.1328125,188.96484375
1767593590415,1767593590.3459375,-29.296875,-14.16015625,-29.296875,-64.453125,-232.421875
1767593590415,1767593590.3498437,-27.83203125,-76.66015625,-32.71484375,-66.89453125,-163.0859375
1767593590415,1767593590.35375,-23.92578125,-60.05859375,-45.41015625,-65.4296875,-98.14453125
1767593590415,1767593590.3576562,-25.390625,-66.40625,-48.33984375,-41.9921875,-168.9453125
1767593590415,1767593590.3615625,-28.3203125,-95.703125,-46.38671875,-35.64453125,-86.9140625
1767593590415,1767593590.3654687,-37.59765625,-148.92578125,-55.17578125,-48.33984375,258.30078125
1767593590415,1767593590.369375,-39.55078125,-125.0,-65.4296875,-45.8984375,291.015625
1767593590415,1767593590.3732812,-29.296875,-19.53125,-67.3828125,-36.62109375,-66.89453125
1767593590415,1767593590.3771875,-36.1328125,-72.265625,-70.3125,-41.50390625,-137.20703125
1767593590415,1767593590.3810937,-36.62109375,-120.1171875,-73.2421875,-48.828125,-148.92578125
1767593590421,1767593590.368125,-39.0625,-85.9375,-78.125,-45.8984375,-269.53125
1767593590421,1767593590.3720312,-40.52734375,-99.609375,-76.66015625,-42.48046875,-265.625
1767593590421,1767593590.3759375,-39.0625,-142.08984375,-70.80078125,-42.96875,-140.13671875
1767593590421,1767593590.3798437,-39.0625,-154.78515625,-73.2421875,-45.41015625,-116.69921875
1767593590421,1767593590.38375,-36.1328125,-179.6875,-76.171875,-43.45703125,-221.19140625
1767593590421,1767593590.3876562,-36.62109375,-201.66015625,-75.68359375,-41.015625,-177.24609375
1767593590421,1767593590.3915625,-33.203125,-197.265625,-77.1484375,-32.71484375,75.1953125
1767593590421,1767593590.3954687,-22.94921875,-193.84765625,-76.66015625,-27.34375,203.125
1767593590421,1767593590.399375,-19.04296875,-192.87109375,-76.66015625,-33.203125,-73.2421875
1767593590421,1767593590.4032812,-11.71875,-206.54296875,-75.1953125,-34.1796875,-516.11328125
1767593590421,1767593590.4071875,-9.27734375,-249.0234375,-70.80078125,-16.11328125,-780.76171875
1767593590421,1767593590.4110937,-13.18359375,-225.09765625,-74.21875,-8.7890625,-631.8359375
1767593590495,1767593590.414125,-9.765625,-141.11328125,-74.21875,-20.5078125,-911.1328125
1767593590495,1767593590.4180312,-0.48828125,-157.2265625,-67.3828125,-11.23046875,-1000.0
1767593590495,1767593590.4219375,-4.39453125,-183.10546875,-66.89453125,-5.37109375,-759.27734375
1767593590495,1767593590.4258437,-8.30078125,-132.32421875,-69.3359375,-4.39453125,-741.69921875
1767593590495,1767593590.42975,0.0,-113.76953125,-68.359375,-10.25390625,-811.5234375
1767593590495,1767593590.4336562,-0.48828125,-144.04296875,-66.40625,-17.578125,-747.0703125
1767593590496,1767593590.4375625,-1.46484375,-180.6640625,-67.3828125,-8.30078125,-209.9609375
1767593590496,1767593590.4414687,4.8828125,-121.09375,-65.4296875,0.48828125,101.07421875
1767593590496,1767593590.445375,5.37109375,-17.08984375,-60.05859375,-8.30078125,-386.71875
1767593590496,1767593590.4492812,5.37109375,-56.640625,-60.05859375,-11.71875,-585.44921875
1767593590496,1767593590.4531875,5.859375,-58.59375,-59.08203125,-12.20703125,-528.3203125
1767593590496,1767593590.4570937,7.8125,-24.90234375,-60.05859375,-15.625,-413.0859375
1767593590614,1767593590.517125,4.39453125,-30.2734375,-60.05859375,-16.6015625,-406.73828125
1767593590614,1767593590.5210311,-0.9765625,-26.3671875,-61.5234375,-17.578125,-445.80078125
1767593590614,1767593590.5249374,-5.37109375,16.11328125,-63.4765625,-19.04296875,16.11328125
1767593590614,1767593590.5288436,-6.34765625,49.31640625,-61.5234375,-13.671875,303.7109375
1767593590614,1767593590.53275,-2.9296875,3.41796875,-59.08203125,-12.6953125,-49.31640625
1767593590614,1767593590.5366561,-4.39453125,-52.24609375,-60.05859375,-18.5546875,-264.6484375
1767593590614,1767593590.5405624,-8.30078125,-52.24609375,-57.6171875,-10.7421875,346.6796875
1767593590614,1767593590.5444686,-6.8359375,49.8046875,-55.17578125,-5.859375,529.296875
1767593590615,1767593590.548375,1.46484375,72.265625,-58.59375,-12.6953125,256.8359375
1767593590615,1767593590.5522811,-1.953125,-0.48828125,-52.24609375,-16.11328125,362.79296875
1767593590615,1767593590.5561874,-13.18359375,-1.953125,-51.7578125,-19.53125,265.625
1767593590615,1767593590.5600936,-8.7890625,31.73828125,-58.59375,-22.94921875,125.9765625
1767593590621,1767593590.565125,-0.9765625,17.578125,-57.12890625,-19.04296875,215.33203125
1767593590621,1767593590.5690312,-11.23046875,-47.8515625,-50.78125,-18.5546875,340.8203125
1767593590621,1767593590.5729375,-16.6015625,-36.62109375,-48.828125,-21.484375,279.78515625
1767593590621,1767593590.5768437,-13.18359375,19.04296875,-47.8515625,-19.04296875,43.9453125
1767593590621,1767593590.58075,-7.32421875,11.23046875,-44.43359375,-12.20703125,224.609375
1767593590621,1767593590.5846562,-0.48828125,-38.0859375,-41.9921875,-13.671875,583.49609375
1767593590621,1767593590.5885625,-5.859375,-30.2734375,-42.96875,-23.92578125,442.3828125
1767593590621,1767593590.5924687,-7.32421875,-5.859375,-38.0859375,-17.578125,120.60546875
1767593590621,1767593590.596375,-3.41796875,-35.15625,-34.66796875,-11.23046875,129.39453125
1767593590621,1767593590.6002812,-5.859375,-43.9453125,-39.55078125,-17.578125,287.59765625
1767593590621,1767593590.6041875,-19.53125,-14.6484375,-45.8984375,-28.80859375,107.91015625
1767593590621,1767593590.6080937,-22.94921875,-22.4609375,-43.45703125,-31.73828125,-38.0859375
1767593590643,1767593590.592125,-21.484375,-41.015625,-43.45703125,-23.4375,43.9453125
1767593590643,1767593590.5960312,-19.53125,-27.83203125,-47.36328125,-19.53125,211.9140625
1767593590643,1767593590.5999374,-25.390625,-17.578125,-47.36328125,-28.80859375,163.57421875
1767593590643,1767593590.6038437,-25.390625,-42.48046875,-46.875,-33.69140625,-52.24609375
1767593590643,1767593590.60775,-10.7421875,-56.640625,-47.8515625,-28.3203125,60.05859375
1767593590643,1767593590.6116562,-8.7890625,-45.41015625,-45.41015625,-25.390625,275.87890625
1767593590643,1767593590.6155624,-15.13671875,-40.0390625,-41.50390625,-26.85546875,149.4140625
1767593590643,1767593590.6194687,-22.4609375,-45.41015625,-44.43359375,-38.57421875,35.15625
1767593590643,1767593590.623375,-19.53125,-49.8046875,-43.45703125,-34.1796875,152.83203125
1767593590643,1767593590.6272812,-20.5078125,-16.11328125,-38.0859375,-29.296875,74.70703125
1767593590643,1767593590.6311874,-24.4140625,1.46484375,-36.1328125,-38.0859375,-31.25
1767593590643,1767593590.6350937,-20.99609375,-47.36328125,-37.109375,-42.96875,5.37109375
1767593590675,1767593590.623125,-21.97265625,-63.96484375,-32.71484375,-41.9921875,14.16015625
1767593590675,1767593590.6270313,-18.5546875,-7.32421875,-33.69140625,-34.1796875,64.453125
1767593590675,1767593590.6309376,-11.71875,7.8125,-33.203125,-29.78515625,-41.50390625
1767593590675,1767593590.6348438,-11.71875,-38.0859375,-30.76171875,-38.57421875,-174.8046875
1767593590675,1767593590.63875,-18.06640625,-64.94140625,-35.64453125,-44.43359375,-116.69921875
1767593590675,1767593590.6426563,-18.5546875,-20.01953125,-34.1796875,-34.66796875,5.37109375
1767593590675,1767593590.6465626,-13.18359375,-1.46484375,-27.34375,-30.76171875,50.29296875
1767593590675,1767593590.6504688,-15.625,-18.06640625,-24.90234375,-29.78515625,-3.90625
1767593590675,1767593590.654375,-23.4375,-83.0078125,-24.4140625,-28.3203125,241.69921875
1767593590675,1767593590.6582813,-29.78515625,-86.9140625,-23.4375,-20.99609375,462.40234375
1767593590675,1767593590.6621876,-25.87890625,24.90234375,-22.94921875,-19.53125,234.86328125
1767593590675,1767593590.6660938,-20.5078125,29.78515625,-25.390625,-32.71484375,6.8359375
1767593590713,1767593590.658125,-29.296875,-19.04296875,-33.203125,-41.9921875,-64.453125
1767593590713,1767593590.6620312,-23.4375,0.48828125,-32.71484375,-34.1796875,-261.71875
1767593590713,1767593590.6659374,-19.04296875,1.46484375,-28.3203125,-30.2734375,-248.046875
1767593590713,1767593590.6698437,-27.34375,-46.38671875,-30.76171875,-36.1328125,-125.0
1767593590713,1767593590.67375,-21.97265625,-114.74609375,-30.2734375,-31.73828125,252.9296875
1767593590713,1767593590.6776562,-21.484375,-47.36328125,-25.87890625,-32.71484375,139.6484375
1767593590713,1767593590.6815624,-25.87890625,-1.46484375,-31.25,-38.0859375,-115.234375
1767593590713,1767593590.6854687,-22.94921875,-42.96875,-36.1328125,-36.1328125,122.55859375
1767593590713,1767593590.689375,-23.92578125,-37.59765625,-34.66796875,-41.50390625,-46.38671875
1767593590713,1767593590.6932812,-30.76171875,-41.015625,-40.0390625,-46.875,-263.671875
1767593590713,1767593590.6971874,-19.53125,-51.26953125,-41.015625,-37.109375,-120.1171875
1767593590713,1767593590.7010937,-8.7890625,-89.84375,-40.0390625,-22.4609375,122.55859375
1767593590782,1767593590.728125,-16.6015625,-129.8828125,-40.0390625,-20.5078125,325.68359375
1767593590782,1767593590.7320313,-31.25,-25.87890625,-40.0390625,-31.25,25.87890625
1767593590782,1767593590.7359376,-19.53125,-20.01953125,-36.62109375,-14.16015625,-212.890625
1767593590782,1767593590.7398438,-5.37109375,-57.6171875,-33.203125,1.46484375,-151.85546875
1767593590782,1767593590.74375,-18.5546875,-26.85546875,-35.64453125,-28.3203125,-194.82421875
1767593590782,1767593590.7476563,-31.73828125,-57.6171875,-42.96875,-47.36328125,-274.90234375
1767593590782,1767593590.7515626,-28.80859375,-78.125,-45.41015625,-41.50390625,-273.92578125
1767593590782,1767593590.7554688,-25.87890625,-100.5859375,-49.8046875,-25.87890625,30.2734375
1767593590782,1767593590.759375,-25.87890625,-27.83203125,-57.6171875,-35.64453125,92.7734375
1767593590782,1767593590.7632813,-25.390625,-7.8125,-59.5703125,-52.24609375,-163.0859375
1767593590782,1767593590.7671876,-31.73828125,-71.77734375,-62.5,-50.29296875,-216.30859375
1767593590782,1767593590.7710938,-26.85546875,-52.24609375,-68.84765625,-49.8046875,-204.58984375
1767593590808,1767593590.758125,-13.18359375,-30.76171875,-73.73046875,-43.45703125,-175.29296875
1767593590808,1767593590.7620313,-11.23046875,-69.3359375,-77.1484375,-48.828125,-93.75
1767593590808,1767593590.7659376,-16.11328125,-99.609375,-82.51953125,-48.33984375,-163.57421875
1767593590808,1767593590.7698438,-16.11328125,-61.5234375,-82.51953125,-29.78515625,-58.59375
1767593590808,1767593590.77375,-5.37109375,-44.921875,-77.63671875,-26.3671875,-35.64453125
1767593590808,1767593590.7776563,1.953125,-83.49609375,-79.58984375,-37.109375,-225.09765625
1767593590808,1767593590.7815626,0.9765625,-92.28515625,-81.54296875,-38.0859375,-120.60546875
1767593590808,1767593590.7854688,-3.41796875,-79.58984375,-77.63671875,-27.83203125,114.2578125
1767593590808,1767593590.789375,-1.46484375,-39.0625,-72.265625,-18.5546875,-35.64453125
1767593590808,1767593590.7932813,2.9296875,-48.33984375,-67.3828125,-19.53125,-191.89453125
1767593590808,1767593590.7971876,5.37109375,-101.5625,-69.3359375,-22.94921875,-143.06640625
1767593590808,1767593590.8010938,-1.953125,-81.54296875,-67.3828125,-20.01953125,-252.9296875
1767593590866,1767593590.802125,-7.8125,-49.31640625,-65.4296875,-17.08984375,-282.71484375
1767593590866,1767593590.8060312,-4.8828125,-70.80078125,-64.94140625,-15.13671875,-241.2109375
1767593590866,1767593590.8099375,-6.8359375,-150.87890625,-68.84765625,-18.5546875,-12.6953125
1767593590866,1767593590.8138437,-9.765625,-145.5078125,-70.3125,-16.11328125,216.796875
1767593590866,1767593590.81775,-7.32421875,-41.9921875,-62.01171875,-11.23046875,-72.75390625
1767593590866,1767593590.8216562,-7.32421875,-64.94140625,-60.05859375,-10.25390625,-21.97265625
1767593590866,1767593590.8255625,-4.39453125,-114.74609375,-59.08203125,-9.765625,149.4140625
1767593590866,1767593590.8294687,-6.8359375,-79.58984375,-60.05859375,-14.6484375,-113.28125
1767593590866,1767593590.833375,-7.8125,-51.26953125,-60.05859375,-15.625,-211.9140625
1767593590866,1767593590.8372812,-3.41796875,-87.890625,-55.17578125,-5.859375,-79.58984375
1767593590866,1767593590.8411875,0.0,-147.94921875,-52.734375,-1.46484375,228.515625
1767593590866,1767593590.8450937,-1.953125,-79.58984375,-56.640625,-16.6015625,49.8046875
1767593590896,1767593590.832125,-2.44140625,-41.50390625,-58.59375,-18.5546875,-329.58984375
1767593590896,1767593590.8360312,-3.90625,-75.68359375,-54.19921875,-11.71875,-234.86328125
1767593590896,1767593590.8399374,-10.25390625,-72.265625,-52.734375,-15.625,-140.625
1767593590896,1767593590.8438437,-11.71875,-71.77734375,-50.29296875,-23.4375,-184.5703125
1767593590896,1767593590.84775,-0.48828125,-85.44921875,-45.41015625,-18.06640625,-228.02734375
1767593590896,1767593590.8516562,2.44140625,-109.86328125,-49.31640625,0.0,-11.23046875
1767593590896,1767593590.8555624,2.44140625,-87.890625,-44.43359375,6.34765625,159.66796875
1767593590896,1767593590.8594687,0.48828125,-61.03515625,-40.52734375,-9.765625,-38.0859375
1767593590896,1767593590.863375,-10.25390625,-83.0078125,-45.41015625,-22.94921875,-106.93359375
1767593590896,1767593590.8672812,-9.765625,-83.49609375,-48.828125,-13.18359375,-23.4375
1767593590896,1767593590.8711874,-3.41796875,-52.734375,-46.875,-6.34765625,-94.23828125
1767593590896,1767593590.8750937,-4.39453125,-49.31640625,-45.41015625,-16.11328125,-212.890625
1767593590986,1767593590.907125,-4.8828125,-72.265625,-49.8046875,-24.4140625,-264.16015625
1767593590986,1767593590.9110312,-4.39453125,-138.671875,-51.7578125,-17.578125,-50.78125
1767593590986,1767593590.9149375,-1.46484375,-106.4453125,-44.43359375,-9.765625,239.74609375
1767593590986,1767593590.9188437,-1.953125,-21.484375,-39.55078125,-20.99609375,-135.25390625
1767593590986,1767593590.92275,-6.8359375,-63.96484375,-40.0390625,-35.64453125,-237.79296875
1767593590986,1767593590.9266562,1.953125,-102.5390625,-43.9453125,-36.62109375,116.2109375
1767593590986,1767593590.9305625,16.6015625,-57.6171875,-45.8984375,-27.83203125,208.984375
1767593590986,1767593590.9344687,18.5546875,-31.73828125,-44.43359375,-31.25,-31.73828125
1767593590986,1767593590.938375,4.8828125,-85.9375,-41.50390625,-31.25,-187.5
1767593590986,1767593590.9422812,-12.6953125,-149.4140625,-37.109375,-6.8359375,192.3828125
1767593590986,1767593590.9461875,-24.4140625,-55.17578125,-34.66796875,11.71875,200.68359375
1767593590986,1767593590.9500937,-33.69140625,-9.765625,-32.2265625,9.27734375,-151.3671875
1767593591067,1767593590.997125,-42.48046875,-82.03125,-32.71484375,-3.90625,-235.3515625
1767593591067,1767593591.0010312,-41.50390625,-82.51953125,-36.62109375,-17.08984375,-276.85546875
1767593591067,1767593591.0049374,-29.296875,-40.52734375,-41.50390625,-15.625,-162.109375
1767593591067,1767593591.0088437,-20.99609375,-42.96875,-42.48046875,-13.18359375,-97.65625
1767593591067,1767593591.01275,-18.06640625,-82.03125,-41.015625,-25.87890625,-52.24609375
1767593591067,1767593591.0166562,-15.13671875,-94.23828125,-44.921875,-33.69140625,4.8828125
1767593591067,1767593591.0205624,-11.71875,-62.5,-46.875,-36.1328125,2.44140625
1767593591068,1767593591.0244687,-14.16015625,-54.6875,-44.43359375,-33.69140625,37.109375
1767593591068,1767593591.028375,-17.08984375,-73.73046875,-42.96875,-34.66796875,-15.13671875
1767593591068,1767593591.0322812,-19.53125,-62.01171875,-43.45703125,-40.0390625,-199.21875
1767593591068,1767593591.0361874,-22.94921875,-44.921875,-43.45703125,-40.0390625,-342.7734375
1767593591068,1767593591.0400937,-13.671875,-56.640625,-38.0859375,-35.15625,-313.4765625
1767593591091,1767593591.018125,-9.27734375,-98.14453125,-35.64453125,-23.4375,56.15234375
1767593591091,1767593591.0220313,-23.92578125,-78.61328125,-40.52734375,-29.296875,363.28125
1767593591091,1767593591.0259376,-18.5546875,-8.7890625,-39.0625,-38.0859375,52.24609375
1767593591092,1767593591.0298438,-2.44140625,-39.0625,-32.2265625,-19.04296875,-98.6328125
1767593591092,1767593591.03375,-4.8828125,-89.35546875,-31.25,-13.18359375,80.078125
1767593591092,1767593591.0376563,-9.27734375,-70.80078125,-34.1796875,-24.4140625,24.90234375
1767593591092,1767593591.0415626,-9.27734375,-59.08203125,-36.62109375,-26.85546875,-198.73046875
1767593591092,1767593591.0454688,-9.765625,-64.453125,-37.59765625,-23.4375,-166.015625
1767593591092,1767593591.049375,-6.34765625,-62.01171875,-36.1328125,-20.99609375,-115.72265625
1767593591092,1767593591.0532813,-0.9765625,-24.90234375,-31.25,-21.97265625,-215.8203125
1767593591092,1767593591.0571876,-5.37109375,-49.31640625,-32.71484375,-25.87890625,-360.83984375
1767593591092,1767593591.0610938,-7.8125,-108.88671875,-33.203125,-23.92578125,-624.0234375
1767593591123,1767593591.073125,-5.37109375,-47.36328125,-26.3671875,-13.671875,-236.81640625
1767593591123,1767593591.0770311,-3.90625,-18.5546875,-24.4140625,-9.765625,-19.04296875
1767593591123,1767593591.0809374,-2.44140625,-67.87109375,-25.87890625,-17.578125,-135.7421875
1767593591123,1767593591.0848436,-9.765625,-66.89453125,-30.2734375,-23.4375,-129.8828125
1767593591123,1767593591.08875,-8.7890625,-48.33984375,-33.69140625,-15.13671875,-113.28125
1767593591123,1767593591.0926561,-6.34765625,-45.8984375,-38.0859375,-17.08984375,-49.8046875
1767593591123,1767593591.0965624,-15.625,-59.08203125,-39.55078125,-25.87890625,-94.7265625
1767593591123,1767593591.1004686,-10.7421875,-67.87109375,-37.109375,-21.97265625,-67.3828125
1767593591123,1767593591.104375,-4.39453125,-31.73828125,-37.59765625,-16.11328125,-63.96484375
1767593591123,1767593591.1082811,-7.8125,-19.04296875,-41.9921875,-23.4375,-231.93359375
1767593591123,1767593591.1121874,-5.859375,-54.6875,-41.9921875,-29.296875,-260.7421875
1767593591123,1767593591.1160936,-1.46484375,-97.16796875,-39.0625,-25.87890625,-103.02734375
1767593591156,1767593591.078125,-3.41796875,-56.640625,-35.64453125,-22.4609375,18.5546875
1767593591156,1767593591.0820312,-2.9296875,-32.2265625,-33.203125,-15.625,-71.77734375
1767593591156,1767593591.0859375,0.9765625,-63.96484375,-31.73828125,-21.97265625,-229.4921875
1767593591156,1767593591.0898438,-5.37109375,-125.48828125,-28.3203125,-22.94921875,-74.21875
1767593591156,1767593591.09375,-12.20703125,-152.34375,-27.83203125,-3.41796875,306.15234375
1767593591156,1767593591.0976562,-9.27734375,-69.3359375,-29.296875,4.39453125,326.171875
1767593591156,1767593591.1015625,-7.8125,-25.87890625,-26.85546875,-8.7890625,103.02734375
1767593591156,1767593591.1054688,-8.7890625,-66.40625,-24.4140625,-23.4375,42.96875
1767593591156,1767593591.109375,-11.71875,-48.33984375,-24.4140625,-22.94921875,-222.65625
1767593591156,1767593591.1132812,-14.16015625,-42.96875,-27.83203125,-19.53125,-278.80859375
1767593591156,1767593591.1171875,-11.71875,-78.61328125,-34.1796875,-21.484375,-84.9609375
1767593591156,1767593591.1210938,-11.71875,-83.0078125,-31.25,-25.390625,114.2578125
1767593591188,1767593591.117125,-10.25390625,-78.125,-26.85546875,-31.25,-305.17578125
1767593591188,1767593591.1210313,-3.90625,-90.8203125,-27.34375,-29.78515625,-920.41015625
1767593591188,1767593591.1249375,-1.953125,-71.2890625,-29.296875,-25.87890625,-439.453125
1767593591188,1767593591.1288438,-6.8359375,-53.22265625,-31.25,-29.296875,107.91015625
1767593591188,1767593591.13275,-15.13671875,-77.1484375,-32.2265625,-31.25,-40.52734375
1767593591188,1767593591.1366563,-16.6015625,-88.37890625,-31.73828125,-28.80859375,24.4140625
1767593591188,1767593591.1405625,-10.7421875,-82.51953125,-34.66796875,-23.4375,279.78515625
1767593591188,1767593591.1444688,-10.25390625,-138.671875,-38.57421875,-15.13671875,647.94921875
1767593591188,1767593591.148375,-13.18359375,-111.328125,-39.0625,-23.92578125,565.4296875
1767593591188,1767593591.1522813,-7.32421875,-20.01953125,-35.15625,-29.78515625,-99.12109375
1767593591188,1767593591.1561875,1.953125,-52.734375,-29.78515625,-15.625,-236.328125
1767593591188,1767593591.1600938,1.46484375,-55.6640625,-33.69140625,-21.484375,-144.53125
1767593591245,1767593591.164125,-1.46484375,-40.52734375,-32.2265625,-30.2734375,-286.1328125
1767593591245,1767593591.1680312,-7.8125,-63.96484375,-29.78515625,-24.4140625,-399.4140625
1767593591245,1767593591.1719375,-7.32421875,-118.1640625,-34.66796875,-11.71875,-74.21875
1767593591245,1767593591.1758437,-1.953125,-85.9375,-32.2265625,-6.8359375,232.421875
1767593591245,1767593591.17975,-5.37109375,-19.53125,-31.73828125,-20.5078125,-165.0390625
1767593591245,1767593591.1836562,-2.9296875,-80.078125,-33.203125,-25.390625,-194.82421875
1767593591245,1767593591.1875625,-4.39453125,-94.23828125,-27.34375,-19.04296875,111.328125
1767593591245,1767593591.1914687,-11.23046875,-36.1328125,-24.4140625,-17.578125,-71.77734375
1767593591245,1767593591.195375,-17.08984375,-32.71484375,-26.3671875,-23.4375,-296.875
1767593591245,1767593591.1992812,-18.5546875,-83.0078125,-28.3203125,-30.2734375,-288.57421875
1767593591245,1767593591.2031875,-15.625,-135.25390625,-28.80859375,-13.18359375,76.171875
1767593591245,1767593591.2070937,-9.27734375,-39.0625,-27.83203125,0.0,-3.90625
1767593591272,1767593591.207125,-5.859375,11.71875,-27.34375,-10.25390625,-280.2734375
1767593591272,1767593591.2110312,-13.671875,-60.546875,-26.85546875,-19.53125,-354.4921875
1767593591272,1767593591.2149374,-17.578125,-83.984375,-31.25,-21.484375,-791.9921875
1767593591272,1767593591.2188437,-19.53125,-65.4296875,-32.2265625,-15.625,-1000.0
1767593591272,1767593591.22275,-24.4140625,-55.17578125,-31.73828125,-18.5546875,-930.17578125
1767593591272,1767593591.2266562,-26.85546875,-67.87109375,-32.71484375,-23.92578125,-88.37890625
1767593591272,1767593591.2305624,-22.4609375,-85.9375,-28.3203125,-13.18359375,541.015625
1767593591272,1767593591.2344687,-22.94921875,-38.0859375,-24.4140625,-8.30078125,268.06640625
1767593591272,1767593591.238375,-19.04296875,-26.3671875,-23.4375,-14.16015625,122.0703125
1767593591272,1767593591.2422812,-13.18359375,-76.66015625,-27.83203125,-19.53125,24.4140625
1767593591272,1767593591.2461874,-17.578125,-64.453125,-30.76171875,-28.80859375,-170.8984375
1767593591272,1767593591.2500937,-21.97265625,-42.48046875,-30.76171875,-29.296875,-313.4765625
1767593591377,1767593591.312125,-11.23046875,-49.31640625,-29.296875,-23.4375,-226.07421875
1767593591377,1767593591.3160312,-8.7890625,-101.5625,-28.3203125,-20.01953125,154.78515625
1767593591377,1767593591.3199375,-16.6015625,-81.0546875,-28.3203125,-23.92578125,180.17578125
1767593591377,1767593591.3238437,-12.6953125,-10.7421875,-25.87890625,-31.25,-208.984375
1767593591377,1767593591.32775,-7.8125,-36.1328125,-25.87890625,-27.83203125,-87.40234375
1767593591377,1767593591.3316562,-16.11328125,-74.21875,-26.85546875,-32.71484375,205.078125
1767593591377,1767593591.3355625,-24.4140625,-69.82421875,-24.90234375,-41.50390625,105.95703125
1767593591377,1767593591.3394687,-19.53125,-39.0625,-22.94921875,-30.76171875,-140.13671875
1767593591377,1767593591.343375,-10.7421875,-55.17578125,-20.99609375,-16.6015625,-38.57421875
1767593591377,1767593591.3472812,-4.39453125,-123.53515625,-21.484375,-11.23046875,251.953125
1767593591377,1767593591.3511875,-6.8359375,-83.0078125,-25.87890625,-20.5078125,-409.66796875
1767593591377,1767593591.3550937,-8.30078125,-45.8984375,-22.94921875,-23.4375,-837.890625
1767593591398,1767593591.342125,-12.20703125,-78.61328125,-25.87890625,-15.13671875,-679.19921875
1767593591398,1767593591.3460312,-8.7890625,-67.3828125,-29.296875,-14.6484375,-771.484375
1767593591398,1767593591.3499374,-14.16015625,-62.01171875,-28.3203125,-26.85546875,-898.4375
1767593591398,1767593591.3538437,-25.87890625,-85.9375,-30.2734375,-37.109375,-851.5625
1767593591398,1767593591.35775,-22.94921875,-87.40234375,-32.71484375,-34.66796875,-722.65625
1767593591398,1767593591.3616562,-19.53125,-62.98828125,-34.1796875,-30.76171875,-531.25
1767593591398,1767593591.3655624,-22.4609375,-50.29296875,-35.64453125,-39.0625,-460.44921875
1767593591398,1767593591.3694687,-19.04296875,-62.98828125,-34.66796875,-41.50390625,-570.3125
1767593591398,1767593591.373375,-15.13671875,-66.89453125,-34.66796875,-31.25,-514.16015625
1767593591398,1767593591.3772812,-18.5546875,-50.29296875,-36.62109375,-25.390625,-501.46484375
1767593591398,1767593591.3811874,-21.484375,-34.1796875,-38.0859375,-37.109375,-559.08203125
1767593591398,1767593591.3850937,-20.5078125,-64.453125,-36.1328125,-44.43359375,-520.5078125
1767593591426,1767593591.373125,-15.625,-111.81640625,-32.2265625,-38.57421875,-435.546875
1767593591426,1767593591.3770313,-5.37109375,-60.546875,-29.78515625,-24.90234375,-374.51171875
1767593591426,1767593591.3809376,0.0,-2.9296875,-28.3203125,-21.484375,66.89453125
1767593591426,1767593591.3848438,-11.23046875,-50.29296875,-25.87890625,-35.15625,314.94140625
1767593591426,1767593591.38875,-13.671875,-100.5859375,-23.92578125,-34.66796875,495.60546875
1767593591426,1767593591.3926563,-7.8125,-69.3359375,-29.296875,-20.99609375,637.6953125
1767593591426,1767593591.3965626,-7.8125,-50.78125,-31.73828125,-21.97265625,487.79296875
1767593591426,1767593591.4004688,-16.11328125,-80.078125,-29.78515625,-30.2734375,380.37109375
1767593591426,1767593591.404375,-23.4375,-125.0,-27.34375,-24.4140625,479.00390625
1767593591427,1767593591.4082813,-19.53125,-47.8515625,-28.3203125,-17.08984375,412.109375
1767593591427,1767593591.4121876,-14.16015625,-0.9765625,-28.80859375,-17.08984375,125.48828125
1767593591427,1767593591.4160938,-16.6015625,-75.1953125,-28.3203125,-20.99609375,-61.5234375
1767593591459,1767593591.402125,-18.5546875,-73.73046875,-34.1796875,-30.76171875,97.65625
1767593591459,1767593591.4060311,-16.11328125,-38.57421875,-35.15625,-25.87890625,141.11328125
1767593591459,1767593591.4099374,-18.5546875,-39.0625,-34.66796875,-18.06640625,101.07421875
1767593591459,1767593591.4138436,-21.97265625,-71.77734375,-38.57421875,-15.625,293.45703125
1767593591459,1767593591.41775,-11.23046875,-145.5078125,-37.59765625,-3.90625,597.16796875
1767593591459,1767593591.4216561,-8.7890625,-77.1484375,-35.15625,-6.8359375,545.41015625
1767593591459,1767593591.4255624,-6.8359375,-20.01953125,-30.76171875,-4.8828125,246.58203125
1767593591459,1767593591.4294686,-6.34765625,-56.15234375,-25.390625,-3.41796875,167.48046875
1767593591459,1767593591.433375,-8.7890625,-46.38671875,-31.73828125,-14.16015625,161.62109375
1767593591459,1767593591.4372811,10.25390625,-43.45703125,-30.2734375,5.859375,46.38671875
1767593591459,1767593591.4411874,-4.39453125,-32.71484375,-24.4140625,-0.9765625,-115.234375
1767593591459,1767593591.4450936,-32.2265625,-83.984375,-23.4375,-27.34375,176.26953125
1767593591515,1767593591.463125,-25.390625,-126.46484375,-18.5546875,-20.01953125,614.2578125
1767593591515,1767593591.4670312,-29.296875,-22.4609375,-10.7421875,-31.25,249.51171875
1767593591515,1767593591.4709375,-41.50390625,-9.765625,-5.37109375,-43.9453125,-121.58203125
1767593591515,1767593591.4748437,-47.8515625,-65.91796875,-0.9765625,-42.96875,39.55078125
1767593591515,1767593591.47875,-55.17578125,-54.6875,8.7890625,-59.08203125,75.1953125
1767593591515,1767593591.4826562,-61.5234375,-79.58984375,11.71875,-67.87109375,6.8359375
1767593591515,1767593591.4865625,-63.96484375,-96.19140625,10.25390625,-62.98828125,-27.83203125
1767593591515,1767593591.4904687,-69.3359375,-113.28125,13.18359375,-52.734375,240.72265625
1767593591515,1767593591.494375,-66.89453125,-55.6640625,23.4375,-51.7578125,143.06640625
1767593591515,1767593591.4982812,-67.87109375,-29.78515625,25.390625,-72.265625,-284.1796875
1767593591515,1767593591.5021875,-73.2421875,-77.63671875,16.6015625,-71.2890625,-229.98046875
1767593591515,1767593591.5060937,-65.91796875,-81.0546875,17.08984375,-62.98828125,-31.73828125
1767593591554,1767593591.492125,-71.77734375,-58.59375,11.71875,-72.265625,-81.54296875
1767593591554,1767593591.4960313,-81.54296875,-61.5234375,6.34765625,-80.56640625,-189.94140625
1767593591554,1767593591.4999375,-81.54296875,-104.00390625,3.41796875,-81.0546875,-51.26953125
1767593591554,1767593591.5038438,-69.82421875,-99.12109375,-3.41796875,-69.3359375,59.5703125
1767593591554,1767593591.50775,-62.5,-79.58984375,-6.34765625,-67.87109375,-138.18359375
1767593591554,1767593591.5116563,-67.87109375,-105.95703125,-10.25390625,-78.125,-176.7578125
1767593591554,1767593591.5155625,-65.4296875,-119.62890625,-18.06640625,-79.58984375,24.4140625
1767593591554,1767593591.5194688,-49.31640625,-96.6796875,-20.5078125,-58.59375,51.7578125
1767593591554,1767593591.523375,-41.015625,-51.26953125,-21.97265625,-45.41015625,-72.265625
1767593591554,1767593591.5272813,-38.57421875,-54.6875,-27.34375,-49.31640625,-65.91796875
1767593591554,1767593591.5311875,-33.69140625,-134.765625,-30.2734375,-48.828125,5.859375
1767593591554,1767593591.5350938,-33.69140625,-154.296875,-27.83203125,-31.25,274.90234375
1767593591607,1767593591.555125,-34.66796875,-50.29296875,-28.80859375,-24.4140625,-47.36328125
1767593591607,1767593591.5590312,-30.2734375,-62.01171875,-32.71484375,-29.78515625,-368.1640625
1767593591607,1767593591.5629375,-20.01953125,-113.76953125,-30.2734375,-26.3671875,-53.7109375
1767593591607,1767593591.5668437,-18.06640625,-74.21875,-27.83203125,-22.94921875,-178.22265625
1767593591607,1767593591.57075,-20.99609375,-58.10546875,-31.25,-24.90234375,-348.6328125
1767593591607,1767593591.5746562,-14.6484375,-94.23828125,-35.15625,-22.4609375,-109.375
1767593591607,1767593591.5785625,-9.765625,-150.390625,-32.71484375,-21.484375,179.6875
1767593591607,1767593591.5824687,-15.13671875,-76.171875,-34.1796875,-23.92578125,152.83203125
1767593591607,1767593591.586375,-14.16015625,-11.71875,-37.109375,-26.3671875,-77.63671875
1767593591607,1767593591.5902812,-2.9296875,-57.12890625,-35.64453125,-21.484375,-18.06640625
1767593591607,1767593591.5941875,-3.90625,-71.77734375,-40.0390625,-25.390625,-15.13671875
1767593591607,1767593591.5980937,-12.6953125,-67.87109375,-37.109375,-32.71484375,-169.921875
1767593591692,1767593591.582125,-12.20703125,-74.70703125,-31.73828125,-25.390625,-320.80078125
1767593591695,1767593591.5860312,-5.37109375,-80.56640625,-31.73828125,-12.20703125,-220.21484375
1767593591695,1767593591.5899374,-6.8359375,-72.265625,-33.69140625,-17.08984375,-20.01953125
1767593591695,1767593591.5938437,-15.13671875,-68.84765625,-32.71484375,-30.76171875,-105.95703125
1767593591695,1767593591.59775,-15.13671875,-90.33203125,-33.203125,-25.87890625,-309.08203125
1767593591695,1767593591.6016562,-4.39453125,-118.65234375,-35.15625,-15.13671875,-583.984375
1767593591695,1767593591.6055624,6.8359375,-95.21484375,-29.78515625,-10.25390625,-694.3359375
1767593591695,1767593591.6094687,-0.48828125,-70.3125,-30.76171875,-20.01953125,-824.21875
1767593591695,1767593591.613375,-12.20703125,-62.98828125,-43.45703125,-27.83203125,-900.390625
1767593591695,1767593591.6172812,-9.765625,-78.61328125,-42.48046875,-15.625,-715.33203125
1767593591695,1767593591.6211874,-3.90625,-108.88671875,-32.71484375,2.9296875,-201.66015625
1767593591695,1767593591.6250937,-4.39453125,-21.97265625,-29.296875,-6.8359375,-289.55078125
1767593591745,1767593591.689125,-2.9296875,-12.20703125,-30.2734375,-23.92578125,-729.98046875
1767593591745,1767593591.6930313,-3.41796875,-66.89453125,-32.2265625,-14.6484375,-622.0703125
1767593591745,1767593591.6969376,-8.7890625,-42.48046875,-34.66796875,-12.20703125,-569.82421875
1767593591745,1767593591.7008438,-11.71875,-42.48046875,-37.109375,-24.90234375,-677.24609375
1767593591745,1767593591.70475,-14.6484375,-79.1015625,-40.52734375,-36.1328125,-608.3984375
1767593591745,1767593591.7086563,-15.13671875,-103.02734375,-39.55078125,-27.34375,-371.58203125
1767593591745,1767593591.7125626,-20.01953125,-67.87109375,-40.52734375,-17.578125,-339.84375
1767593591745,1767593591.7164688,-24.4140625,-19.04296875,-41.50390625,-26.85546875,72.75390625
1767593591745,1767593591.720375,-19.53125,-46.875,-36.62109375,-27.83203125,447.75390625
1767593591745,1767593591.7242813,-21.97265625,-67.87109375,-35.64453125,-27.34375,380.859375
1767593591745,1767593591.7281876,-22.4609375,-25.87890625,-36.62109375,-31.73828125,333.984375
1767593591745,1767593591.7320938,-20.01953125,-38.57421875,-37.59765625,-32.2265625,279.296875
1767593591767,1767593591.693125,-19.53125,-83.0078125,-38.0859375,-35.15625,290.52734375
1767593591767,1767593591.6970313,-20.01953125,-85.9375,-36.1328125,-34.1796875,270.99609375
1767593591767,1767593591.7009375,-20.99609375,-57.12890625,-37.59765625,-28.80859375,101.5625
1767593591767,1767593591.7048438,-21.484375,-61.5234375,-39.0625,-28.80859375,46.875
1767593591767,1767593591.70875,-21.484375,-102.5390625,-33.203125,-33.69140625,128.90625
1767593591767,1767593591.7126563,-26.85546875,-105.95703125,-33.69140625,-38.0859375,227.5390625
1767593591767,1767593591.7165625,-23.92578125,-67.87109375,-34.1796875,-31.73828125,176.26953125
1767593591767,1767593591.7204688,-20.5078125,-66.40625,-35.15625,-23.92578125,242.67578125
1767593591767,1767593591.724375,-27.34375,-73.2421875,-38.0859375,-24.4140625,333.984375
1767593591767,1767593591.7282813,-29.296875,-73.73046875,-37.59765625,-27.83203125,250.0
1767593591767,1767593591.7321875,-23.92578125,-71.77734375,-41.50390625,-24.4140625,159.1796875
1767593591767,1767593591.7360938,-20.5078125,-62.5,-42.48046875,-25.390625,54.19921875
1767593591799,1767593591.748125,-22.94921875,-88.8671875,-35.64453125,-29.78515625,137.20703125
1767593591799,1767593591.7520313,-19.04296875,-75.68359375,-33.69140625,-32.2265625,144.04296875
1767593591799,1767593591.7559376,-14.6484375,-60.05859375,-32.71484375,-32.2265625,-75.1953125
1767593591799,1767593591.7598438,-7.32421875,-71.77734375,-26.85546875,-18.06640625,-23.4375
1767593591799,1767593591.76375,-2.44140625,-99.12109375,-32.2265625,-15.13671875,204.1015625
1767593591799,1767593591.7676563,-2.9296875,-89.35546875,-38.57421875,-24.4140625,212.40234375
1767593591799,1767593591.7715626,-0.48828125,-70.3125,-33.69140625,-29.296875,-11.71875
1767593591799,1767593591.7754688,12.20703125,-50.29296875,-30.76171875,-28.3203125,-109.86328125
1767593591799,1767593591.779375,19.04296875,-103.02734375,-34.1796875,-21.484375,292.48046875
1767593591799,1767593591.7832813,8.7890625,-132.32421875,-30.2734375,-15.13671875,670.41015625
1767593591799,1767593591.7871876,-9.765625,-46.38671875,-24.90234375,-13.671875,302.24609375
1767593591799,1767593591.7910938,-22.4609375,-24.90234375,-22.94921875,-6.34765625,-56.640625
1767593591875,1767593591.807125,-38.57421875,-74.21875,-20.5078125,3.41796875,20.5078125
1767593591875,1767593591.8110313,-48.828125,-57.6171875,-21.97265625,3.90625,-36.1328125
1767593591875,1767593591.8149376,-47.36328125,-54.19921875,-26.3671875,-5.37109375,-273.4375
1767593591875,1767593591.8188438,-35.15625,-100.09765625,-32.2265625,-15.13671875,-242.1875
1767593591875,1767593591.82275,-22.4609375,-124.0234375,-28.3203125,-9.27734375,65.4296875
1767593591875,1767593591.8266563,-24.90234375,-69.3359375,-32.2265625,-23.4375,-62.5
1767593591875,1767593591.8305626,-25.87890625,-75.68359375,-42.48046875,-41.015625,-56.15234375
1767593591875,1767593591.8344688,-27.83203125,-108.3984375,-38.57421875,-43.9453125,16.11328125
1767593591875,1767593591.838375,-30.2734375,-76.66015625,-36.1328125,-39.55078125,-141.6015625
1767593591875,1767593591.8422813,-22.4609375,-64.453125,-41.50390625,-41.015625,-215.8203125
1767593591875,1767593591.8461876,-18.5546875,-80.56640625,-39.55078125,-46.875,-221.6796875
1767593591875,1767593591.8500938,-26.85546875,-145.01953125,-35.15625,-41.50390625,-164.55078125
1767593591904,1767593591.826125,-30.2734375,-169.921875,-29.78515625,-22.4609375,145.99609375
1767593591904,1767593591.8300312,-30.76171875,-51.26953125,-27.83203125,-26.3671875,-43.45703125
1767593591904,1767593591.8339374,-26.3671875,-47.8515625,-32.71484375,-32.71484375,-161.1328125
1767593591904,1767593591.8378437,-22.94921875,-121.09375,-30.76171875,-33.69140625,12.20703125
1767593591904,1767593591.84175,-19.53125,-88.8671875,-27.83203125,-29.296875,-126.46484375
1767593591904,1767593591.8456562,-11.71875,-75.68359375,-26.3671875,-19.53125,-121.09375
1767593591904,1767593591.8495624,-10.25390625,-105.95703125,-26.3671875,-24.90234375,41.9921875
1767593591904,1767593591.8534687,-15.625,-117.1875,-28.3203125,-30.2734375,-37.109375
1767593591904,1767593591.857375,-19.04296875,-71.77734375,-28.3203125,-31.73828125,-310.05859375
1767593591904,1767593591.8612812,-18.06640625,-49.8046875,-32.71484375,-30.2734375,-326.171875
1767593591904,1767593591.8651874,-19.53125,-86.42578125,-33.69140625,-27.34375,-134.27734375
1767593591904,1767593591.8690937,-20.01953125,-99.609375,-28.80859375,-27.83203125,19.04296875
1767593591931,1767593591.868125,-15.13671875,-63.96484375,-25.87890625,-32.2265625,-127.9296875
1767593591931,1767593591.8720312,-15.13671875,-59.5703125,-25.87890625,-28.3203125,-196.77734375
1767593591931,1767593591.8759375,-22.94921875,-88.8671875,-30.2734375,-29.296875,-50.29296875
1767593591931,1767593591.8798437,-17.08984375,-81.0546875,-30.2734375,-32.2265625,-35.15625
1767593591931,1767593591.88375,-12.6953125,-73.2421875,-30.2734375,-28.80859375,-181.15234375
1767593591931,1767593591.8876562,-12.20703125,-86.9140625,-29.78515625,-23.4375,-214.84375
1767593591931,1767593591.8915625,-8.7890625,-87.40234375,-27.83203125,-13.18359375,30.76171875
1767593591931,1767593591.8954687,-13.18359375,-145.01953125,-28.80859375,-6.8359375,457.03125
1767593591931,1767593591.899375,-20.01953125,-109.375,-33.203125,-8.7890625,439.453125
1767593591931,1767593591.9032812,-22.4609375,-18.06640625,-35.64453125,-17.08984375,-59.08203125
1767593591931,1767593591.9071875,-14.16015625,-50.29296875,-34.1796875,-14.6484375,-119.140625
1767593591931,1767593591.9110937,-12.20703125,-55.17578125,-31.73828125,-14.6484375,-20.99609375
1767593591993,1767593591.914125,-14.16015625,-44.43359375,-29.78515625,-28.80859375,-246.58203125
1767593591995,1767593591.9180312,-12.6953125,-61.03515625,-29.296875,-30.2734375,-283.69140625
1767593591995,1767593591.9219375,-10.25390625,-110.3515625,-29.78515625,-19.04296875,-21.484375
1767593591995,1767593591.9258437,-9.27734375,-62.01171875,-30.76171875,-15.625,82.51953125
1767593591995,1767593591.92975,-7.8125,-15.625,-26.3671875,-23.92578125,-94.7265625
1767593591995,1767593591.9336562,-9.765625,-87.40234375,-26.85546875,-22.4609375,-18.06640625
1767593591995,1767593591.9375625,-12.6953125,-99.609375,-28.3203125,-7.8125,197.75390625
1767593591995,1767593591.9414687,-14.6484375,-26.3671875,-27.34375,-6.8359375,1.953125
1767593591995,1767593591.945375,-17.08984375,-34.66796875,-33.203125,-17.08984375,-169.43359375
1767593591995,1767593591.9492812,-17.578125,-88.8671875,-31.25,-21.97265625,-182.6171875
1767593591995,1767593591.9531875,-7.32421875,-104.4921875,-22.94921875,-8.7890625,52.24609375
1767593591995,1767593591.9570937,-2.9296875,-8.7890625,-25.390625,-4.8828125,55.6640625
1767593592083,1767593591.957125,-5.859375,11.23046875,-32.2265625,-15.13671875,-258.30078125
1767593592083,1767593591.9610312,-8.7890625,-53.7109375,-32.71484375,-22.4609375,-260.7421875
1767593592083,1767593591.9649374,-13.671875,-37.59765625,-32.71484375,-26.3671875,-178.7109375
1767593592083,1767593591.9688437,-11.23046875,-21.484375,-29.78515625,-15.13671875,-282.71484375
