unix_ms,lsl_unix_ts,TP9,AF7,AF8,TP10,Right AUX
1767593587081,1767593587.007125,0.3154841284994476,2.4342316857615898,-2.656331216678393,0.17403326408138822,-1.9893619192685112
1767593587082,1767593587.0110312,-0.9517945414240954,2.686857927852933,-7.069486374714369,0.9970324907104224,8.615209888189279
1767593587082,1767593587.0149374,-2.2242237370171463,1.4185085281285994,-11.27608553546056,0.13619608118086485,9.744268276865856
1767593587082,1767593587.0188437,-3.4273440735295084,-3.2565607607952933,-14.935816129138875,-2.6424959738330385,9.117020269341289
1767593587082,1767593587.02275,-4.325265033127376,-12.541604121080635,-17.559991100564122,-5.604956310043109,32.826805083823025
1767593587082,1767593587.0266562,-4.697524974979569,-24.36121389253177,-18.693385573511904,-6.073437492186073,104.62335003056057
1767593587082,1767593587.0305624,-4.758297114316032,-31.9211003645247,-18.277659595295095,-2.5916565381155676,217.60799274904724
1767593587082,1767593587.034469,-5.241873712134111,-27.010532616730842,-16.977933722800486,3.4129892955587566,326.90960833299414
1767593587082,1767593587.038375,-6.804574425857249,-7.099586186901768,-16.094156217724834,8.14515178076131,377.6122696524385
1767593587083,1767593587.0422812,-9.310090709859466,20.38876074549669,-16.90347648256928,7.999802578883897,345.97906232111757
1767593587083,1767593587.0461874,-11.848806153449972,41.998054531260635,-19.824541336692068,2.0607589258784405,254.94883323066068
1767593587083,1767593587.0500937,-13.52892722383407,47.63486650324244,-24.07575257933023,-7.44718161780973,151.08512859001542
1767593587083,1767593587.025125,-14.242783308721954,37.21117050136786,-28.15061074258652,-16.77783539302589,69.17374120852624
1767593587083,1767593587.0290313,-14.713163640266156,19.3824561695931,-30.76134988540555,-22.851395145461556,17.20186456843914
1767593587083,1767593587.0329375,-15.854874647867945,4.496304081040813,-31.53048768068535,-24.58890448591674,-12.428771993479835
1767593587083,1767593587.0368438,-18.035107825553016,-2.0023195020086497,-30.968467233706594,-22.902452317958446,-24.64038918650489
1767593587083,1767593587.04075,-20.799484041524067,-0.980691499463269,-29.891685674369793,-19.687482549190147,-16.149346922494683
1767593587083,1767593587.0446565,-23.15840688143224,3.7443387678910613,-28.82078958615154,-16.595117491836174,14.79090149739676
1767593587083,1767593587.0485623,-24.083423199708555,9.151104426511203,-27.778342065053913,-14.288474367664787,56.547379034851836
1767593587083,1767593587.0524688,-22.909214298454216,13.966864015031078,-26.519604221603938,-12.449380215616543,83.85922396973847
1767593587083,1767593587.056375,-19.63271332282577,17.826285024612282,-24.936907509717965,-10.370953911528616,70.94083106842758
1767593587084,1767593587.0602813,-15.057096826661851,20.788879476551607,-23.29893837238097,-7.703974647791598,8.86538686423769
1767593587084,1767593587.0641875,-10.52938516776017,23.12240744207183,-22.112338440029763,-4.839943061316431,-84.39746186885962
1767593587084,1767593587.0680938,-7.295900860073305,24.612269714143288,-21.70119648797882,-2.6588785382145756,-169.4524704393645
1767593587276,1767593587.112125,-5.981214256734165,24.38387419278997,-21.88478768660056,-1.872966041396572,-206.02021207489406
1767593587276,1767593587.1160312,-6.55878858877957,22.010335145965048,-22.068849876754967,-2.5155610118185434,-175.89611886640498
1767593587276,1767593587.1199374,-8.581221668794953,18.379309189239166,-21.662920272995994,-3.973052156452246,-91.32806342492601
1767593587276,1767593587.1238437,-11.311483373813635,14.998683493701643,-20.438755842053865,-5.492627654031663,15.67936782146752
1767593587276,1767593587.12775,-13.843130253518716,12.977387184818342,-18.567331255641935,-6.694800777838871,111.21701585402779
1767593587276,1767593587.1316562,-15.47317494737667,12.972639405294014,-16.418806151485583,-7.622523557687438,171.9021177151643
1767593587276,1767593587.1355624,-16.173455588462712,15.17563354618508,-14.385594574841601,-8.341417920030512,189.60720254302836
1767593587276,1767593587.139469,-16.635233414226672,18.55383323704357,-12.843116250414223,-8.610480662875014,169.34528287311858
1767593587276,1767593587.143375,-17.620586692997954,20.590362495616603,-12.096598286582726,-8.019090110971783,120.6434323304553
1767593587276,1767593587.1472812,-19.070485122988295,18.444614895219818,-12.157287670117372,-6.340200506481893,51.15727721954208
1767593587276,1767593587.1511874,-19.877440784673226,10.523409901214047,-12.538777344575955,-3.6291737799162576,-25.73690039118053
1767593587276,1767593587.1550937,-18.77427320949994,-2.4997458885916943,-12.459388916676003,-0.1429200240246309,-78.21325291211683
1767593587277,1767593587.130125,-15.614759554031407,-17.059299555308634,-11.445207590884424,3.5086247396138894,-66.13848518137557
1767593587278,1767593587.1340313,-11.691020929591822,-27.075448117198977,-9.78750712429347,6.120189237451085,18.99522020850517
1767593587278,1767593587.1379375,-8.640624634584617,-26.911744554803043,-8.371482447380993,6.252492465627498,122.53295021580814
1767593587278,1767593587.1418438,-7.065695795870043,-15.913885294371195,-8.007562082809821,3.351275081627771,149.5840550503331
1767593587278,1767593587.14575,-6.2868298275829915,0.20117046850170117,-8.826625756858073,-1.3474338609680319,37.64698303406569
1767593587278,1767593587.1496563,-5.317520826924842,13.83792385722703,-10.168272476265248,-5.283160452367319,-181.74447637338602
1767593587278,1767593587.1535623,-3.875601172964153,21.589252503519976,-10.983841905284029,-6.309005532581528,-391.6196855934186
1767593587278,1767593587.1574688,-2.446517021076253,25.339440526236846,-10.471726994949286,-4.201234886069175,-469.073426447383
1767593587278,1767593587.161375,-1.5667503404209064,28.056297791582637,-8.571271055807971,-0.5508416366673431,-373.5187305593145
1767593587278,1767593587.1652813,-1.2351775330421753,29.78048331172238,-6.026656730654182,2.739286658490212,-170.3776018765208
1767593587278,1767593587.1691875,-1.0600461675243102,27.952822656360276,-3.953071640354816,4.812819456919819,26.744789638321585
1767593587279,1767593587.1730938,-0.8574808484954265,21.10147622667459,-3.139638347523513,5.953156758864381,139.1407126351656
1767593587279,1767593587.159125,-0.896739855608357,11.670800983999518,-3.5420100742571505,6.771572504949863,161.42864069899656
1767593587279,1767593587.163031,-1.447768657947678,4.5807241966315795,-4.332848145304367,7.582512316353506,139.40975857269413
1767593587279,1767593587.1669376,-2.2222531056570523,2.7504499357784575,-4.497165045448117,8.401586456166914,123.23087944556978
1767593587279,1767593587.1708438,-2.501118471243734,4.830617399254659,-3.564228473526839,9.113127267637095,133.25401049366718
1767593587279,1767593587.17475,-1.8871418832059494,7.766146235228833,-1.946826127544693,9.432807530752422,152.35337239050628
1767593587279,1767593587.1786563,-0.8176104167007033,10.33210940152339,-0.6185314550811478,8.938644768377603,144.91740020826538
1767593587279,1767593587.1825626,-0.21310641485713588,13.0640241710911,-0.35457158510891496,7.4587114309390365,92.4889486538466
1767593587279,1767593587.1864688,-0.5635886480747792,15.84765132732428,-1.1242737823722257,5.432396237900712,18.209104437908607
1767593587279,1767593587.190375,-1.365722896487951,17.328098495719928,-2.1314890120744057,3.646779619415587,-27.60372088503891
1767593587279,1767593587.194281,-1.560350094017649,16.674402365645133,-2.4805523611935727,2.4714187675821124,-13.007616908161088
1767593587279,1767593587.1981876,-0.624547277078773,14.865898100405202,-1.906320761930165,1.4158736986517884,41.9778009058002
1767593587279,1767593587.2020938,0.8227539986712064,13.727368017414278,-0.9362553438777996,-0.4459618819273386,78.65999139184251
1767593587280,1767593587.187125,1.5997325791689265,13.430354422318512,-0.3587697144816482,-3.5428220610050016,51.443175652164584
1767593587280,1767593587.1910312,1.0745279676033666,10.74424551184416,-0.506701547334541,-7.222946411869191,-25.504956055005827
1767593587280,1767593587.1949377,-0.4284892843379833,0.7877738983162983,-1.0170795452611274,-10.079302272305245,-79.93211396573169
1767593587280,1767593587.1988437,-2.2215231406437397,-17.397663457317293,-1.240070647463447,-10.996028382845548,-39.215597305972786
1767593587280,1767593587.20275,-3.9378289440652745,-36.284925043374514,-0.8337249205812202,-10.110881054316659,98.36222346052469
1767593587280,1767593587.2066562,-5.486660628126484,-42.835988895871395,0.0468797728591,-8.862579875836882,245.12088321403556
1767593587280,1767593587.2105625,-6.541131003369411,-28.938990904281994,1.066271122443697,-8.941833537630837,286.5919296032617
1767593587280,1767593587.2144687,-6.410255375634833,-0.21433004628327923,2.077933508273961,-10.864188422457767,176.62301218969523
1767593587280,1767593587.218375,-4.60182834755508,26.127821399318545,3.098091323395097,-13.339932957127235,-20.28994712940782
1767593587280,1767593587.2222812,-1.503214729903918,33.710475831742954,3.9933650078891967,-14.121904963956506,-177.12802159648888
1767593587280,1767593587.2261877,1.5737862805955407,19.509662680292518,4.406421402308274,-11.79238985604807,-199.87055207505662
1767593587280,1767593587.2300937,3.12922851298951,-3.781870885408211,4.134563628573217,-7.046895879912008,-92.83511193198959
1767593587407,1767593587.263125,2.455564589550505,-17.630626793674125,3.5186396740417374,-2.354084761493312,52.93003236982452
1767593587407,1767593587.2670312,0.1385973104433379,-12.146218286413166,3.283416171616661,-0.20719470265885126,133.95869916260582
1767593587407,1767593587.2709374,-2.3149613386982932,6.630411482680503,3.8697254648783166,-1.3678081038722616,110.20188174991935
1767593587407,1767593587.2748437,-3.4978380872026964,22.616245240611242,4.895603754737101,-4.467419066761706,23.478564004972363
1767593587407,1767593587.27875,-3.007823245691637,23.056917490940915,5.329346575786798,-7.128411342957763,-47.538031823163095
1767593587407,1767593587.2826562,-1.5136634465145005,7.805860542585184,4.3157302062148775,-7.587632160444206,-49.0893732543726
1767593587407,1767593587.2865624,0.017630516813776115,-11.733659319229039,1.9667442765992824,-5.677439572196561,17.16977019649506
1767593587408,1767593587.2904687,1.1617942099607967,-21.31446655399788,-0.6022706665887378,-2.72068725604967,105.17968209747244
1767593587408,1767593587.294375,2.1941393637159394,-13.485191596791724,-2.0618740467026697,-0.5773516326899358,158.7286761734497
1767593587408,1767593587.2982812,3.596889249187065,7.863331411736789,-1.788882822752072,-0.4137521558353338,145.90164045711632
1767593587408,1767593587.3021874,5.56215543890492,30.917838038902694,-0.120343701186026,-1.9069853772943421,74.45445846029017
1767593587408,1767593587.3060937,7.907722193079416,44.51190725518289,2.1404794823321556,-3.4521176689661512,-19.927702708065627
1767593587408,1767593587.294125,10.241067038415363,44.67775566436024,4.331235378802861,-3.2932256150584656,-99.80633427887791
1767593587408,1767593587.298031,12.085576582225972,34.71811831362837,6.122543458531465,-0.7621406993049721,-143.78391927271454
1767593587408,1767593587.3019376,12.987798777433873,21.02102106392564,7.387211192587313,3.2787539974143938,-147.22394514249322
1767593587408,1767593587.3058438,12.733187773629108,9.17743716000657,8.08084624759693,7.063830823248485,-115.67232700210214
1767593587408,1767593587.30975,11.537252085237943,2.2249078338766743,8.217635643304277,9.127121603216304,-61.3197749970078
1767593587408,1767593587.3136563,9.913194540537363,0.4779719717288699,7.857929588744092,9.19935091253387,-2.3735357809276794
1767593587408,1767593587.3175626,8.21364485340275,2.2283912152256486,7.110308440097083,8.165315214699213,39.66841054390418
1767593587408,1767593587.3214688,6.301840025918188,4.90174236417496,6.176568186436423,7.197305405330721,47.26547737232103
1767593587408,1767593587.325375,3.782700244333213,6.459986354542224,5.360396299302651,6.804920759136161,16.02634070017382
1767593587408,1767593587.329281,0.6145649191303817,6.686641121210506,4.934886894732944,6.5146999630720295,-41.02033081011306
1767593587408,1767593587.3331876,-2.571761795940409,7.102133726926258,4.903882469486618,5.373601727590772,-98.94803026339201
1767593587408,1767593587.3370938,-4.852641964307734,8.600217404725678,4.879345884850819,2.9056708138333844,-132.28985691486412
1767593587408,1767593587.354125,-5.733479928039281,9.024581775041149,4.305477999183189,-0.21462720359459425,-123.91137166130991
1767593587408,1767593587.3580313,-5.468073848542332,4.638830194358715,2.943327722066508,-2.4386011752566845,-69.04677290192713
1767593587408,1767593587.3619375,-4.649967949923858,-4.892771459367523,1.172665457534377,-2.523326858240023,22.029726458657983
1767593587408,1767593587.3658438,-3.5223528378661855,-14.039079768345097,-0.22970908266892148,-0.6375285482276075,122.1450436599053
1767593587408,1767593587.36975,-1.782080267329953,-15.520144582661505,-0.6712753433972182,1.723388883564427,191.19628824586997
1767593587408,1767593587.3736565,0.8346841151190352,-7.2698413201073695,-0.19288857372618828,3.0701316629374586,190.82934025430907
1767593587408,1767593587.3775623,3.8120636738468163,4.669187804285329,0.5865864871607355,3.318671622024472,108.00569735311393
1767593587408,1767593587.3814688,5.9384228076383865,9.823637545102807,1.022433206409774,3.9734254960983804,-25.606221791519488
1767593587408,1767593587.385375,6.347272490411725,0.8529151393832288,1.0533757962377575,6.8418717527790855,-139.6652230472199
1767593587408,1767593587.3892813,5.415052492931405,-19.854196641284258,1.2424842122982673,12.186474795087017,-166.50805985054853
1767593587408,1767593587.3931875,4.40285285112094,-39.79531707365075,2.0753176953212655,17.79066850054948,-94.04241407763578
1767593587408,1767593587.3970938,4.170195253576811,-44.53923806263318,3.1902405544273624,20.03480814818,17.639882286687875
1767593587477,1767593587.367125,4.45968466265111,-29.303840949013633,3.4662378548499397,16.579938282097217,80.80146313277882
1767593587477,1767593587.3710313,4.5976547086901505,-3.4880761197514936,2.0398353274073933,8.546868685581856,52.184831624232956
1767593587478,1767593587.3749375,4.672029240389096,16.84652089717763,-0.7531739942666511,0.053894074154469895,-32.722306305615
1767593587478,1767593587.3788438,5.559966963585563,21.65677470993963,-3.524429389394318,-4.761122939240691,-93.65708455137562
1767593587478,1767593587.38275,7.5974344927499695,13.195295844417338,-4.949803724059142,-4.6730232093800055,-73.64630426022596
1767593587478,1767593587.3866563,9.569080967288782,1.626024124238111,-4.730477243410788,-1.7085402860383745,18.396813748973205
1767593587478,1767593587.3905623,9.575653641073048,-4.313835571457445,-3.5112436756243737,1.1500403608467928,119.94046776432003
1767593587478,1767593587.3944688,7.074109284771453,-3.063380981911749,-2.0466269764133256,2.485523388423389,164.21210874717144
1767593587478,1767593587.398375,3.742076404040969,1.1783070085854244,-0.6423404979763639,2.852349076327674,125.14577710321419
1767593587478,1767593587.4022813,2.0342113212983004,3.5107849097705492,0.6256265471354944,3.2071644083620527,28.371232405903612
1767593587478,1767593587.4061875,2.924777851443113,1.1579965464820492,1.45453674390207,3.5619753423669387,-69.78097727020821
1767593587478,1767593587.4100938,5.129584405606195,-7.0500883270132855,1.3727447775554729,3.3389943284872357,-112.89096868766275
1767593587481,1767593587.430125,6.372415964951178,-20.5242020389795,0.26246071439222174,2.532512608695302,-67.86392261819026
1767593587481,1767593587.4340312,5.271303993032619,-34.669266170437574,-1.3618125832749106,1.8811507657602566,61.204282313580286
1767593587481,1767593587.4379375,2.1734312860574687,-41.28729526102313,-2.702963492281737,1.8174511839863108,230.23805609008116
1767593587481,1767593587.4418435,-1.4372347413540054,-34.691476102877196,-3.2745622024407517,1.7176374232983462,370.80145022116454
1767593587481,1767593587.44575,-4.065001358030321,-17.861023655022365,-3.1445133423725196,0.5496452390360084,422.16435980516667
1767593587481,1767593587.4496562,-4.875187743332544,-0.8245525476710941,-2.688631737353625,-1.8753551710537792,360.6419932693195
1767593587481,1767593587.4535625,-3.7742550384886977,7.605968383502473,-2.181852388712936,-4.57397442605129,208.58042356647755
1767593587481,1767593587.4574687,-1.3608061359158217,6.1052418926154335,-1.6294788596812395,-6.299560662786224,22.613184943971568
1767593587481,1767593587.461375,1.1010034566094413,-0.10985670076108156,-0.9646542844838969,-6.6189542419998455,-131.19930801237612
1767593587481,1767593587.4652812,2.088553023122173,-4.810255936278215,-0.34577371436520316,-6.0725648604385,-208.11240394834067
1767593587481,1767593587.4691875,0.7730672592876027,-5.402516211544439,-0.16228934686018556,-5.396113005114717,-207.25767588756193
1767593587481,1767593587.4730935,-2.142368609027398,-3.527436099012083,-0.688492289305084,-4.692148265862842,-167.75570449853134
1767593587562,1767593587.457125,-4.598072454305539,-2.1726766429620814,-1.723158922522352,-3.3823986356891305,-136.2169036564627
1767593587563,1767593587.4610312,-4.49605338011199,-2.644470397856729,-2.5612173749509997,-0.9609162715915431,-129.4240919103941
1767593587563,1767593587.4649374,-1.2816343650181623,-4.214636797307123,-2.354710883144457,2.1560341980457483,-124.82389575584479
1767593587565,1767593587.4688437,3.445273660140554,-5.875995720732293,-0.6564686274091084,4.50472613680999,-90.77586075092528
1767593587565,1767593587.47275,6.914257809267822,-7.924878156810018,2.1789738041758646,4.521871857542773,-31.738686778082347
1767593587565,1767593587.4766562,7.148474916206797,-12.433864108178925,5.008803791523003,2.008741757508174,-2.746584472586064
1767593587565,1767593587.4805624,4.394931904256577,-22.33103661354911,6.396835063555819,-1.2318529136746175,-69.49955936889653
1767593587565,1767593587.4844687,0.9022341069513453,-38.26265709350874,5.415955591013078,-2.5521144314475817,-244.00546592544663
1767593587565,1767593587.488375,-0.6881288785853112,-54.66274422885894,2.353211100605892,-0.6805090165799658,-458.0499694213472
1767593587565,1767593587.4922812,0.9359729857422266,-60.150943143463124,-1.2251434674999175,3.0655262303892723,-605.3019279320484
1767593587565,1767593587.4961874,5.048426779950715,-45.24216844427578,-3.3238608772583134,5.885596135416505,-615.0262228878171
1767593587565,1767593587.5000937,9.466815159761175,-11.903312967362487,-2.82063700855065,5.918857398806756,-491.99510955373324
1767593587598,1767593587.547125,11.927987926654268,24.922889450485364,-0.20466450754296253,3.6459255093682783,-297.44367030200243
1767593587598,1767593587.5510314,11.411068378754203,46.859589710409125,2.8905071816776915,1.107536045069386,-100.70221068419777
1767593587598,1767593587.5549376,8.638591577247023,44.78583320260461,4.936417385275927,0.03334525522732247,56.87204796334753
1767593587598,1767593587.558844,5.48447672502935,24.150194246623588,5.441908932370627,0.7311129975636695,167.57811263634954
1767593587601,1767593587.56275,3.7726163520557883,-0.249314157501473,4.8828243269411455,2.3914918236603175,239.5098973326153
1767593587601,1767593587.5666564,4.336858755023726,-14.755585800984493,3.956122861302452,4.0794192124567585,275.38471291951976
1767593587601,1767593587.5705626,6.8156495461922075,-14.755082082877475,2.9987932770977976,5.404783996823645,267.0235343173902
1767593587601,1767593587.5744689,10.008715843451819,-5.359585724485942,2.0083437975476555,6.456250788539932,208.1601688001964
1767593587601,1767593587.578375,12.451784348057705,4.039525246579003,1.020207531969804,7.332069777576538,112.04366432177996
1767593587601,1767593587.5822814,13.049068180181813,6.428088914483342,0.36633328843061647,7.914945615138354,17.917364199539904
1767593587601,1767593587.5861876,11.61553601072846,0.8812179473205243,0.554117726657579,8.106490766043498,-23.550507496038506
1767593587602,1767593587.590094,9.013796116374719,-7.848938815547095,1.8251838721676532,8.07385599689491,14.676288598329602
1767593587676,1767593587.551125,6.655741886431518,-13.327273825303104,3.744112552855061,8.07957706876913,101.76801381883153
1767593587676,1767593587.5550313,5.620822196486526,-12.93322441073538,5.272214532937647,8.144264876233894,152.4997916558251
1767593587676,1767593587.5589375,6.084845437418907,-10.351534497889922,5.442311907735351,8.124254921062716,82.72390287404868
1767593587676,1767593587.5628438,7.5884225472266955,-11.671452926206152,4.14271630470195,8.22878481388605,-121.9291344640878
1767593587676,1767593587.56675,9.889661717258647,-18.457232042997276,2.3050342465825864,9.262453024587675,-386.3978209626871
1767593587676,1767593587.5706563,13.448158160719709,-25.457943601283468,1.2873411624940778,11.968381428531321,-595.7175098091578
1767593587676,1767593587.5745623,18.799352005519857,-25.47410228925666,1.931015916636707,15.782960106703486,-669.1037442569757
1767593587676,1767593587.5784688,25.27063170549174,-15.849686953649032,3.9629176129101342,18.195798053817633,-597.3835769473474
1767593587676,1767593587.582375,30.515762514403747,-0.3289506746820376,6.1089303070946075,15.83744161957144,-426.3590899658373
1767593587677,1767593587.5862813,31.694111822478096,14.353613687871242,6.8828316482224166,7.051041763249666,-218.2676007595897
1767593587677,1767593587.5901875,27.18475227584069,23.263259161360065,5.636549381970209,-6.08249764227788,-27.349593344112975
1767593587677,1767593587.5940938,17.084301315299808,25.229580448669665,3.168547331164911,-18.420197164833134,108.21908302629593
1767593587690,1767593587.638125,2.4091588467158838,20.900865605584276,1.3562802135443532,-24.980585448617582,176.56481934587524
1767593587690,1767593587.6420312,-15.585732525951089,10.232835463990945,1.9821790247590092,-24.207303746835525,203.93762150176366
1767593587690,1767593587.6459374,-35.23476928369369,-6.412657855688377,5.560005187367942,-18.89586599138694,241.96240378223538
1767593587690,1767593587.6498437,-54.087270244131325,-24.67875590532926,10.978508583458082,-14.367859101942205,321.34745555762623
1767593587690,1767593587.65375,-69.15303568335924,-36.0703229141462,16.198985396242666,-15.180109454077384,412.0156621400587
1767593587690,1767593587.6576562,-77.83823485880419,-33.66432548198766,19.48956669496026,-22.397454969264004,441.26115469676995
1767593587690,1767593587.6615624,-79.05368778631689,-18.1805326154806,20.295202903325873,-33.219490098465364,363.54563740017034
1767593587690,1767593587.6654687,-73.80503774158936,2.2390358897240428,19.196546488806007,-43.18089305798573,211.9264079583522
1767593587690,1767593587.669375,-64.74406972828322,18.095189039434278,17.20322542026848,-49.02382202454699,75.088805805943
1767593587690,1767593587.6732812,-54.80712445092087,24.47564833587307,15.077518363831723,-49.9334167544363,22.46379498981717
1767593587690,1767593587.6771874,-45.856635267527686,22.65971261318606,13.142350969447651,-46.78797425446454,50.84983575947731
1767593587690,1767593587.6810937,-38.27924170575839,17.5531568475428,11.484868836373272,-40.937542649269474,98.62020599414505
1767593587718,1767593587.667125,-31.615670273739063,13.483749393345535,10.172845885049837,-33.68855980274305,106.89718976278512
1767593587718,1767593587.6710312,-25.472837495615153,11.420186449421596,9.247109010149611,-26.279075345520393,68.48893062612242
1767593587718,1767593587.6749375,-19.9721837127791,9.47064791701265,8.611110857449765,-19.739425549819938,24.461188880120268
1767593587718,1767593587.6788435,-15.571239378902765,5.655439452462314,8.076860065949441,-14.641391059180394,20.43531918742429
1767593587718,1767593587.68275,-12.600533334844625,0.1701439807443082,7.573812997683184,-11.099282737899268,67.74779023081184
1767593587718,1767593587.6866562,-10.966437911881627,-4.6413576312156035,7.237815455902134,-9.077250394431033,139.73717015468324
1767593587718,1767593587.6905625,-10.22487655423289,-6.322401785532484,7.199221376080444,-8.62032418065636,194.99803658065196
1767593587718,1767593587.6944687,-9.844079342538558,-4.622341065502822,7.287326170436289,-9.654819756739824,201.61165545365844
1767593587718,1767593587.698375,-9.343047590602485,-1.9285480056696729,7.044603219836602,-11.557551405046144,148.70817779038026
1767593587718,1767593587.7022812,-8.293585653082738,-1.0670616249559584,6.115036571418251,-13.120656500687517,48.278044106486625
1767593587718,1767593587.7061875,-6.395430142964543,-2.7629240766116885,4.604285693472315,-13.128029559698888,-67.37178739536708
1767593587718,1767593587.7100935,-3.5868459594609985,-5.9871804115878335,3.0172164410675926,-10.944356555128397,-152.60493999452376
1767593587870,1767593587.742125,0.013058017875624883,-10.604994395442208,1.862449754174522,-6.530738370325465,-163.1904650516691
1767593587870,1767593587.7460313,4.230129864535405,-17.807083479053272,1.3387687307598626,-0.19605258079823046,-79.39330665361815
1767593587870,1767593587.7499375,8.787472349261034,-26.574471173274556,1.3373080591524813,7.264348072774979,72.37164688625421
1767593587870,1767593587.7538438,13.206339810906798,-31.120009495284698,1.6375222979254176,14.249273095009066,220.29980790923543
1767593587870,1767593587.75775,16.949887029529744,-24.582486275553276,2.0669146407130583,18.75981833261002,283.64826390478373
1767593587870,1767593587.7616563,19.72300229921737,-6.391080888261029,2.548376473645347,19.670783823889057,226.1344078386505
1767593587870,1767593587.7655623,21.54099008970925,14.751140879760463,3.0755889284183535,17.695203586633617,83.22376292915662
1767593587870,1767593587.7694688,22.425854919747486,26.168435718127547,3.598857176708802,14.941846968973747,-61.8505257230478
1767593587870,1767593587.773375,22.06715171481618,20.69373718228745,3.846349541803512,13.397818766402017,-134.03264725304794
1767593587870,1767593587.7772813,19.973830301037,2.771865110463006,3.3540406523597333,13.667951539254283,-111.65199051123514
1767593587870,1767593587.7811875,16.230175184066958,-13.95157907582613,1.9241654182699925,14.926050651663962,-32.390536375293685
1767593587870,1767593587.7850938,12.151954571585236,-16.611436456157183,0.14222114827280322,15.95047262793736,38.97916372157372
1767593587876,1767593587.818125,9.85553835597986,-3.1204943515167356,-0.778974510904577,16.25381907452714,56.39970319626338
1767593587876,1767593587.8220313,10.700141772366004,16.44881807623489,0.025799520594103648,16.253953831228387,19.49407717213826
1767593587876,1767593587.8259375,13.918912774001916,28.268208757323567,2.1348003011676524,16.391935861912394,-34.80720857780057
1767593587876,1767593587.8298438,16.896096187374603,25.32885453146535,3.991497977459704,16.27868009416881,-63.46368634507461
1767593587876,1767593587.83375,17.083824300250633,11.695024026968614,4.185377705057008,14.915102464219615,-44.8420738377567
1767593587876,1767593587.8376565,13.910360427477558,-1.7841001191973604,2.6396981488787232,11.731255092064094,13.629068536052767
1767593587876,1767593587.8415625,8.962372102449493,-6.1024315744632975,0.47653300736929516,7.285214235749506,86.57678512334031
1767593587876,1767593587.8454688,4.424096655435366,-0.3056013234536131,-1.2240915750736017,2.963254729193685,148.1559624215294
1767593587876,1767593587.849375,1.4812810432093553,9.23199589343695,-2.338059952258071,0.04289509104596373,180.25264944148464
1767593587876,1767593587.8532813,0.1999649394215989,14.965481764662481,-3.3761912394160123,-1.1372058221356698,166.35804684169483
1767593587876,1767593587.8571875,0.47381922209491184,13.710343850881193,-4.521207497994268,-1.3764478928893351,86.4227657696216
1767593587876,1767593587.8610938,2.4162220536561723,7.410435825056685,-5.219417562993094,-2.0215029939256,-67.9483217680236
1767593587898,1767593587.848125,5.668787041245423,0.4929027037189952,-4.749447724512493,-3.9368623105952665,-265.8259732821169
1767593587898,1767593587.8520312,8.913733517273224,-3.0478614340344286,-3.110913829474185,-6.8349407566930624,-432.5886318750536
1767593587898,1767593587.8559375,10.709411507119398,-1.8114054721041026,-1.2851973868776585,-9.51308925849112,-489.8612682620296
1767593587898,1767593587.8598435,10.816836397890135,2.139325023101887,-0.5840521278054864,-10.733300197569973,-411.8906375518862
1767593587898,1767593587.86375,10.316125921812345,5.049191760321246,-1.6843652683710864,-10.05402033022346,-246.1401569750277
1767593587898,1767593587.8676562,10.27929431401631,4.858841337243225,-4.169484917528118,-8.137336798253166,-78.32135534031946
1767593587898,1767593587.8715625,10.508317941083888,2.4312839740103147,-6.856620934074966,-6.383482232981109,25.978479272500987
1767593587898,1767593587.8754687,9.676168918498515,-0.4967411655671229,-8.544724117580966,-6.048506917889011,54.77482054311258
1767593587898,1767593587.879375,6.6591604225131,-3.2827552911102083,-8.629337553310956,-7.376686672936752,38.476960432632616
1767593587898,1767593587.8832812,1.8082267109730674,-5.897480229780981,-7.284044460782581,-9.376466263495965,13.927488116732636
1767593587898,1767593587.8871875,-2.93917236991953,-7.776933249238113,-5.260929970076579,-10.445824646743153,-1.310528279950756
1767593587898,1767593587.8910935,-5.33010953953374,-8.14007505914229,-3.5295367381944454,-9.478835330655201,-8.98544128924265
1767593587906,1767593587.851125,-4.584887368191689,-7.085902827603563,-2.906600657265716,-6.743984556658307,-17.44635253154949
1767593587906,1767593587.8550313,-2.191471561798746,-5.955337686256944,-3.7226525716810457,-3.816324791754777,-32.60269656522818
1767593587906,1767593587.8589375,-0.7931223478942667,-6.700311486091638,-5.619154462059274,-2.3582693852418575,-52.36440071908938
1767593587906,1767593587.8628438,-1.9269491434405515,-10.49754710398421,-7.658790493615048,-2.567694182052711,-60.85300373392454
1767593587906,1767593587.86675,-4.602706539478624,-16.1096764308041,-8.805906950421784,-2.7642718779156352,-31.64214713650465
1767593587906,1767593587.8706565,-6.107123454540881,-19.622841714071885,-8.530609051340265,-0.7963602983190206,51.67550948084964
1767593587906,1767593587.8745625,-4.379365947757911,-16.915850363894787,-7.124304546975818,3.850820013281558,171.2398517458108
1767593587906,1767593587.8784688,0.16451888538190193,-7.462092076214535,-5.48334430153956,9.263754065893906,273.1709597399846
1767593587906,1767593587.882375,4.931323310142578,3.8136884319286395,-4.50081589568823,12.52812885950179,298.3488592146541
1767593587906,1767593587.8862813,7.229460238503928,8.543069583238134,-4.5016021930872805,12.225819159726562,227.0145983407753
1767593587906,1767593587.8901875,6.302877832228934,0.07556482746665846,-5.133503969744973,9.781338680516312,102.85209053240274
1767593587906,1767593587.8940938,3.641650070787808,-20.94710572976819,-5.787126680318042,8.303999370512962,11.871601223902399
1767593587958,1767593587.907125,1.455289676450164,-44.731223492175374,-6.1807619450681415,9.813381618151473,22.9072393706192
1767593587958,1767593587.9110312,0.811865788438655,-57.26341383719631,-6.57100621251761,13.41485091168888,131.1138439603811
1767593587958,1767593587.9149375,1.1237153449339283,-49.845778643726014,-7.380965504490436,16.200407512206247,253.45783480520112
1767593587958,1767593587.9188435,1.2340286886528993,-25.756157704163577,-8.633691057820336,15.93335601530209,288.23871216221136
1767593587958,1767593587.92275,0.8049450913007047,1.752022185730012,-9.791822527210432,12.885773058559419,194.6738233628629
1767593587958,1767593587.9266562,0.5748596930571876,18.07358493565544,-10.16958164332632,9.338583675689609,28.323578314988392
1767593587958,1767593587.9305625,1.3092098098454235,15.594170276318048,-9.51910152200343,7.6121580456841915,-95.96868395120298
1767593587958,1767593587.9344687,2.5886985166996284,-2.6905007023871472,-8.26835236558776,8.433833663090263,-86.9261000154251
1767593587958,1767593587.938375,2.79552023837498,-24.792165595775813,-7.198940438497332,10.627420139398945,53.49666642060521
1767593587958,1767593587.9422812,0.5556768125691967,-36.24925927572113,-6.8264580888051265,12.036902142932345,227.58791010601405
1767593587958,1767593587.9461875,-3.678061580383782,-29.47691905832893,-7.045618675579298,11.060700539918917,314.6197241229124
1767593587958,1767593587.9500935,-7.65152650093425,-9.630024475330272,-7.3625012854639875,7.865849876426076,261.9389445691043
1767593588016,1767593587.937125,-9.145592688216034,8.895276797909062,-7.424248493368832,4.357633747928995,114.89483062003109
1767593588016,1767593587.9410312,-7.818911395644047,13.072660905471547,-7.301885421869795,2.78546896274522,-38.37384023394327
1767593588016,1767593587.9449377,-5.236263130746808,0.11853621353064028,-7.344586412729601,4.027845434863818,-149.991194429764
1767593588016,1767593587.9488437,-3.2836407241991443,-21.627888307372068,-7.845078458484444,6.941138048761458,-243.47529383392404
1767593588016,1767593587.95275,-2.707932020058412,-38.86913114815106,-8.796915397552606,9.281661005462373,-368.7556517479812
1767593588016,1767593587.9566562,-2.9699499758549726,-41.463709895008606,-9.864570147965127,9.397104634823581,-531.5873848335486
1767593588016,1767593587.9605625,-3.090996778382052,-27.661464927683806,-10.567296922855492,7.271175381421994,-669.3575111168886
1767593588017,1767593587.9644687,-2.4759162082798625,-4.295491582154792,-10.571574182468462,4.199362860669078,-696.007941438514
1767593588017,1767593587.968375,-1.070888965423973,17.25096405038751,-9.894691443797848,1.7293282777486514,-571.8261821335968
1767593588017,1767593587.9722812,1.0574254376366747,27.1703761252925,-8.86555192599817,0.9680153259688915,-336.16332037090126
1767593588017,1767593587.9761877,4.090160323121109,23.08063499965374,-7.88345856034004,2.4440924560808694,-82.25124183022511
1767593588017,1767593587.9800937,8.186878619503599,12.024536785901638,-7.184560402687732,5.9224527557216895,97.14232064800319
1767593588073,1767593588.013125,12.787374502616396,5.384824017733157,-6.781630941740508,10.144636914080756,153.69095263880018
1767593588074,1767593588.0170312,16.44045230197131,9.35890471484466,-6.548440635181516,13.266100403562096,99.73152007181885
1767593588074,1767593588.0209374,17.71217870063667,19.93147335159629,-6.33167986928274,14.116874849629431,-2.8838902792423955
1767593588074,1767593588.0248437,16.430196825404398,27.82886507392922,-6.044248008003943,13.10717416942235,-77.11787548088381
1767593588074,1767593588.02875,13.920722491192713,27.84613244120391,-5.71902804314086,11.731196838861463,-74.3951755105218
1767593588074,1767593588.0326562,11.874307806612714,22.52348198658869,-5.449176269507243,11.189005229039063,-0.7794374788104115
1767593588074,1767593588.0365624,10.947003790456062,17.78881081387691,-5.221025324891099,11.52721138165449,92.69267113001206
1767593588074,1767593588.0404687,10.428252832088662,16.8755096527576,-4.839205886887192,11.89502376135721,146.81638728751744
1767593588074,1767593588.044375,9.127550973139888,18.604392245759726,-4.104793061644391,11.34896473071909,131.58432492167807
1767593588074,1767593588.0482812,6.516048447958791,20.074188585188814,-3.0707726226697263,9.48314032634112,60.95515907253543
1767593588074,1767593588.0521874,3.1602793813321934,19.788741205938315,-2.0360787702919962,6.671213007663774,-21.248249619571116
1767593588074,1767593588.0560937,0.2578498348735539,18.06988295188875,-1.2533196536518267,3.955760812877866,-71.07212624128171
1767593588104,1767593588.042125,-1.2039520821983711,15.287773536973303,-0.7087817265099441,2.5836727011258125,-67.30743426235239
1767593588104,1767593588.0460312,-0.9973083999208048,11.083486289474855,-0.24731204523652753,3.295213278273358,-14.981152687520368
1767593588104,1767593588.0499375,0.33891419983006377,6.1055669837367,0.13096791956187465,5.720936350949372,64.53807258284472
1767593588104,1767593588.0538435,1.8003019772275726,3.5523896644430666,0.1967415090617561,8.364878764396435,144.65306597727053
1767593588104,1767593588.05775,2.256832846288176,7.180536419509447,-0.2496195977053518,9.426547614931316,201.85574351365162
1767593588104,1767593588.0616562,0.8386397968820102,17.238945645021055,-1.1054455088664505,8.008350812985277,222.40455090468865
1767593588104,1767593588.0655625,-2.5714178127067253,29.33092070620781,-2.0252048581956457,4.661302130329574,205.1744023496964
1767593588104,1767593588.0694687,-6.984261171661664,37.94554648757443,-2.743090500000101,0.7560201681572701,158.62185383844454
1767593588104,1767593588.073375,-10.53277225079617,40.874174988878636,-3.2638707364433754,-2.564870692023328,95.14045554246425
1767593588104,1767593588.0772812,-11.365297697854015,40.22974668211354,-3.710189224690913,-4.797584322738817,26.36479212694892
1767593588104,1767593588.0811875,-8.665038931764148,39.5871894194002,-4.064691990699517,-5.808289680971158,-39.2911389299764
1767593588104,1767593588.0850935,-3.126500341476037,39.888903274351755,-4.1644387032274945,-5.5895005825490145,-93.57047258155245
1767593588138,1767593588.074125,3.294900131362815,37.854687770460146,-3.9366361134043486,-4.321987491719201,-120.17657468939842
1767593588138,1767593588.0780313,8.15624363285079,29.43020329699044,-3.5284562550940204,-2.3983371935157045,-94.68428767199049
1767593588138,1767593588.0819376,9.64793910503469,15.979349978300192,-3.1505173095749166,-0.24663485745630548,-4.370312281939067
1767593588138,1767593588.0858438,7.738252248073053,6.198481729003454,-2.8568371033868947,1.744823165010324,126.44952702077256
1767593588138,1767593588.08975,4.486028039343958,9.711569489424788,-2.5424969822925827,3.0740962721052187,237.60385797281788
1767593588138,1767593588.0936563,2.7569078593695138,27.73639455756762,-2.125921187319524,3.105564362509692,270.602484691294
1767593588138,1767593588.0975626,3.9646372097171207,50.33928542998265,-1.6582241507654882,1.4903500722207796,213.02922056177044
1767593588138,1767593588.1014688,6.817117526043072,63.175065803825454,-1.2188819203288106,-1.2606071522820452,110.56689668136475
1767593588138,1767593588.105375,8.449472731233135,57.929121248377434,-0.7482701062655045,-3.795586651430595,35.118583192653674
1767593588138,1767593588.1092813,7.031315628536373,38.59847496912283,-0.09149384043480616,-4.953233222648362,31.646130197617424
1767593588138,1767593588.1131876,3.3579775681493538,19.028298478972573,0.7276067882124011,-5.038433595761763,82.65818930359717
1767593588138,1767593588.1170938,-0.12650312115131207,12.618955398307252,1.3498853937494935,-5.7605073279835235,120.5815928385796
1767593588186,1767593588.117125,-1.807184352030996,21.648489187294338,1.3299653858338636,-8.38917829986147,83.39609478190823
1767593588186,1767593588.1210313,-2.2747178126753207,35.666627228738975,0.6067930767873987,-11.932613135335698,-30.631809226098238
1767593588186,1767593588.1249375,-3.3001513902614237,40.67693239004696,-0.2800478797274064,-13.529171973655288,-155.93013040923097
1767593588186,1767593588.1288438,-5.729118993628427,30.38480629146433,-0.5005203093449845,-10.918243832942517,-205.93670522309355
1767593588186,1767593588.13275,-8.537239918421799,9.986126813687104,0.42729641548219127,-4.606325545299135,-136.71581919742673
1767593588186,1767593588.1366563,-9.782109153344644,-8.706257572330692,2.2089110777853347,2.273513875565683,16.909930754094262
1767593588186,1767593588.1405623,-8.332239348444338,-15.554201449043898,3.9555590658308364,6.1803509296990535,159.28138347596388
1767593588186,1767593588.1444688,-4.8862706338664745,-8.330424467957608,4.79522990193266,5.576194527132312,198.58865154797192
1767593588186,1767593588.148375,-1.6152532890884896,6.4663128106221315,4.344200803218707,1.7414729973742094,112.78842526378413
1767593588186,1767593588.1522813,-0.6875821770388205,18.56243864529293,2.7520379197340734,-2.405777201686992,-37.75822189240534
1767593588186,1767593588.1561875,-2.6547395681739268,20.724099789167045,0.5166778557652151,-4.382488158538913,-161.45444092453639
1767593588186,1767593588.1600938,-5.966957671560619,12.187750559840936,-1.7186676106264256,-3.5445749784527107,-202.31151034993016
1767593588247,1767593588.177125,-8.150864935735719,-2.5779106335335262,-3.422394054356842,-1.1210737922225376,-166.07726563899016
1767593588247,1767593588.1810312,-7.731467109341742,-17.22424820547121,-4.451766443297571,0.7326072100988572,-95.95843209794552
1767593588247,1767593588.1849377,-5.268639967689784,-26.77119241702035,-5.075138476503203,0.15886296144693632,-32.1905955540019
1767593588247,1767593588.1888435,-2.678614209055692,-29.65944076020865,-5.607124990059781,-3.446982619261658,8.513380734035998
1767593588247,1767593588.19275,-1.5319505553472237,-27.58405763018639,-5.9946101132234615,-9.174112721351829,25.561454677189534
1767593588247,1767593588.1966562,-1.881913306336464,-23.645145214747018,-5.845953311824848,-15.133017276732946,18.496712938062736
1767593588247,1767593588.2005625,-2.6105248938024554,-20.953355856711998,-4.938518627263173,-19.39333020032826,-14.325936534689454
1767593588247,1767593588.2044687,-2.7676050817898137,-21.973161665208433,-3.652712793544349,-20.786766975072357,-63.19985941413842
1767593588247,1767593588.208375,-2.428769152345975,-26.960036220229778,-2.7727562932179,-19.32903941265002,-104.49939512819245
1767593588247,1767593588.2122812,-2.2427367223724044,-32.4253671503853,-2.7625565952546647,-16.20346151001701,-119.55153678943861
1767593588247,1767593588.2161877,-2.3123913966787155,-33.03590019411228,-3.2650018208557183,-13.196452302231807,-113.8156863466923
1767593588247,1767593588.2200935,-1.710714831659944,-26.636842291046065,-3.417112821773334,-11.642835652113497,-110.92633835204582
1767593588272,1767593588.207125,0.7603118922021727,-17.105870020831105,-2.7241922336393247,-11.507953665000024,-126.58502097902293
1767593588272,1767593588.2110312,5.168667168116181,-11.717862801314629,-1.619461896435923,-11.480452678529074,-149.30236650261156
1767593588272,1767593588.2149374,9.738118884748943,-15.738372752060183,-1.1199162040614707,-10.154977430126126,-145.06336578412598
1767593588272,1767593588.2188437,11.795429920741803,-28.739545052454837,-1.8604653038640193,-7.228411443110126,-81.95542576974306
1767593588272,1767593588.22275,9.920154340553998,-44.55541590182831,-3.3843778891679204,-3.579960774189074,41.16999143570154
1767593588272,1767593588.2266562,5.46649049758005,-54.67383704087249,-4.353876719822299,-0.3088244844548739,182.40351542461767
1767593588272,1767593588.2305624,1.8833941253524544,-53.43256657981408,-3.5420708653871267,2.18661016425675,275.9476929480878
1767593588272,1767593588.2344687,2.1815524638879933,-41.644804192200816,-0.7867491913190771,4.258326241420555,274.6718004526432
1767593588272,1767593588.238375,6.644995138280985,-25.858651645939265,2.8927590154436165,6.3557204727982,183.2898227871914
1767593588272,1767593588.2422812,12.71827676213504,-14.07002423819631,6.093507772993365,8.45671739585972,54.86667093750091
1767593588272,1767593588.2461874,17.057774865629735,-11.13265139741239,8.022323511947155,10.123287719561699,-44.024205194059135
1767593588272,1767593588.2500937,17.886868299277406,-16.306947284741206,8.842582595990919,10.969869788568586,-71.89813901290123
1767593588333,1767593588.283125,15.803316853718105,-24.163141907809454,9.186636740099853,10.93415805828493,-31.401984950031352
1767593588333,1767593588.2870312,12.84193520165976,-28.999566812758037,9.406207203626039,10.15895496789507,39.61633876476886
1767593588333,1767593588.2909374,11.006283741659622,-29.857986889700797,9.29976356868578,8.86082916091696,97.4576062364267
1767593588333,1767593588.2948437,11.38376692763049,-31.03459928437683,8.542266639828961,7.432470291254623,119.98299741687794
1767593588333,1767593588.29875,13.980144314379022,-37.07235093563079,7.329692291467981,6.522808163981511,111.77105113416955
1767593588333,1767593588.3026562,17.872102795236877,-47.74602640018462,6.492843143521914,6.791922191922323,89.84924103139419
1767593588333,1767593588.3065624,21.526539380513082,-58.128848268634066,6.854952512230653,8.446558257330935,68.74929340796614
1767593588333,1767593588.310469,23.445557550077314,-62.34946540823178,8.454034305721489,10.947539317052145,53.91690610388423
1767593588333,1767593588.314375,23.029739518239058,-56.891363717508334,10.469815921743798,13.212692885776976,39.78906252792442
1767593588333,1767593588.3182812,21.040537361448067,-42.21802297340684,11.955425408940124,14.329925537993343,12.851994453467727
1767593588333,1767593588.3221874,19.12339218967005,-23.10911935955023,12.634273886004886,14.350054361891122,-36.73697549810269
1767593588333,1767593588.3260937,18.65165126899345,-6.78437480275843,13.031263018782061,14.436674694880635,-102.74036053109032
1767593588410,1767593588.312125,19.79800351131732,1.1253055578890396,13.882938448950224,15.988661404064336,-163.0712620758128
1767593588410,1767593588.3160312,21.505910933568856,-0.329197508728275,15.34014633969499,19.30111250984622,-192.20916942441713
1767593588410,1767593588.3199377,22.2635581447776,-7.781319085454283,16.629597168145764,23.013100989733474,-173.26847051538357
1767593588410,1767593588.3238437,21.10871234221561,-16.133409088082704,16.564689368325254,25.06516777385194,-103.68462761447145
1767593588410,1767593588.32775,18.320889192236457,-20.80989924225725,14.601163438860084,24.42702086756544,2.1351013177788833
1767593588410,1767593588.3316562,15.411162448961793,-19.00478425437563,11.528198589758935,21.999102268228555,112.71505700596752
1767593588410,1767593588.3355625,14.252716429081362,-10.503392265936395,9.10648337880398,19.888192517309754,187.26556249479248
1767593588410,1767593588.3394687,15.775320431897436,1.8408547705357223,8.881933872337683,19.828811457783942,193.6205132131768
1767593588410,1767593588.343375,19.194838077147978,12.624512286658211,11.096245059229139,22.160989862296752,129.46358908033557
1767593588410,1767593588.3472812,22.457615504454534,16.277604944553005,14.523924209775748,26.00341675064349,31.78208965136618
1767593588410,1767593588.3511877,23.58045980026484,11.212756783236731,17.35915485740283,30.09278689965798,-39.83631006685625
1767593588410,1767593588.3550937,21.894788166654976,2.8362758213721455,18.459914966774292,33.382446109643894,-43.014573168704366
1767593588420,1767593588.362125,18.383011421164188,0.8729624082502432,17.960228416985185,35.11267203174292,13.963401444550968
1767593588420,1767593588.3660312,14.951441861943156,10.887979991805544,16.83928475361277,34.77519607430095,79.08305566466439
1767593588420,1767593588.3699374,13.142567582262066,27.785383826525862,15.999558796584049,32.30562741364238,102.1321098334709
1767593588420,1767593588.3738437,13.18328468368991,39.418923188548604,15.760517290897537,28.290309654799046,74.85641655814871
1767593588420,1767593588.37775,14.074045277731637,37.78126976663606,16.066451572962745,23.865426812991387,26.961194928573097
1767593588420,1767593588.3816562,14.58606159084361,26.27603185550894,16.887738230821732,20.296763975742497,-11.38635215494296
1767593588420,1767593588.3855624,14.231895118382736,15.99991838646248,18.21678904355355,18.406196904071766,-36.849585621898285
1767593588420,1767593588.389469,13.358177909206358,15.560062905324536,19.718070951215136,18.086171086254097,-65.18657439345733
1767593588420,1767593588.393375,12.442301274352126,24.218728442549715,20.60750568834886,18.292918063333417,-104.764233378792
1767593588420,1767593588.3972812,11.468449661465652,33.75318396934533,20.109268138004033,17.75565485674754,-143.24394393152932
1767593588420,1767593588.4011874,10.038666302420491,36.401602835093165,18.17611964392611,15.959958405838966,-158.7511756188094
1767593588420,1767593588.4050937,7.948624632104538,31.389447387063772,15.775152508534598,13.465822460880108,-138.71495854035484
1767593588480,1767593588.417125,5.473446044466476,24.470497424639404,14.326588603037571,11.134225375021165,-86.12344181025084
1767593588480,1767593588.4210312,3.089365194491163,21.811834429119656,14.649367824337011,8.981142602397494,-14.295477365592442
1767593588480,1767593588.4249375,1.1262968250817216,24.393409305736792,16.339790013896557,5.877446772470376,54.51834477165423
1767593588480,1767593588.4288435,-0.09293880694453677,27.437567096248294,18.220537934927695,0.5494474506659344,85.73268325424203
1767593588480,1767593588.43275,0.07892743533221297,24.589775760417815,19.451355403287817,-7.018487903724578,42.73116366086409
1767593588480,1767593588.4366562,2.163898351348724,13.696451428738461,20.151714776956894,-15.251308673168841,-82.57672535264012
1767593588480,1767593588.4405625,5.163537377258511,0.28817941320250956,20.91901802721484,-22.12799290339763,-246.0128543714389
1767593588480,1767593588.4444687,5.728107681570594,-4.687089801906281,21.936405590614868,-26.54464401536733,-367.73105831887375
1767593588480,1767593588.448375,-0.46998641378365813,7.109093296675961,22.820117937224197,-28.543756732127385,-384.7623549857185
1767593588480,1767593588.4522812,-15.704650788782576,33.53557888150672,23.329037530141694,-28.685173129541898,-295.5997406799397
1767593588480,1767593588.4561875,-38.08235447832316,61.96222850894565,23.905845881478747,-27.7842634426342,-157.9970457391171
1767593588480,1767593588.4600935,-62.2383409018613,78.03914602850364,25.256616771854752,-27.22419101830756,-43.00021224790746
1767593588527,1767593588.448125,-82.13973338258374,75.44635754542293,27.43645375890136,-28.812583315008244,16.114204146022747
1767593588527,1767593588.4520311,-93.77964890297777,58.56301850196751,29.529146877217567,-33.6830883977692,39.687512145354226
1767593588527,1767593588.4559374,-96.34930135412397,37.68298122558479,30.28091386352815,-41.255505535152345,72.59961305040807
1767593588527,1767593588.4598436,-91.95420553476559,22.27850473518735,29.01235876941643,-49.49741895152583,138.71426645194296
1767593588527,1767593588.46375,-84.42935606908779,17.02865488397664,25.997971901754696,-56.32692940543113,219.09659824640175
1767593588527,1767593588.467656,-77.6344659690555,21.394489068407292,22.16444822021667,-60.81178307016484,269.690236266124
1767593588527,1767593588.4715624,-73.74993912262082,30.929840730653236,18.519483962280734,-63.16517842611958,260.22174384448647
1767593588527,1767593588.4754686,-72.4538986514337,38.983286125802316,15.730035498519278,-63.81728407194425,201.59944011171066
1767593588527,1767593588.479375,-71.62884047270789,39.49540084342531,13.97002563609363,-62.659304089888366,138.85302176096303
1767593588527,1767593588.4832811,-69.20868115175143,31.19322265088781,12.957125319974482,-59.21244639229176,113.29706342763957
1767593588527,1767593588.4871874,-64.7713950796873,19.877251728531526,12.121416231430572,-53.467824461267035,126.09004573749628
1767593588527,1767593588.4910936,-59.590415331622346,14.701624160087713,10.909886461588522,-46.50576866584084,138.9714931149278
1767593588568,1767593588.492125,-55.22549387267017,20.27094620579891,9.117011770042788,-40.24997878296048,113.88646154326754
1767593588568,1767593588.4960313,-52.12615211138998,32.12967389100588,6.960066324773816,-36.472012085520674,52.862595419053655
1767593588568,1767593588.4999375,-49.58153632581348,40.20617231458119,4.746944600553994,-35.72530541084409,-0.3511428278280917
1767593588568,1767593588.5038438,-46.76418334955474,36.64867307934992,2.4161081218680627,-36.94854677361765,4.040033798325365
1767593588568,1767593588.50775,-43.49640444518164,21.43663573540876,-0.5398116715052125,-38.080288842723846,81.32129166851468
1767593588568,1767593588.5116563,-39.998280748217034,2.50201292031896,-4.570713231341258,-37.30093158750673,196.6554294104394
1767593588568,1767593588.5155623,-36.241790769000666,-9.148358339431434,-9.391053357021898,-33.99296089657414,283.89291692826225
1767593588568,1767593588.5194688,-31.872648733452653,-6.593128087656991,-13.830511659223724,-28.80787448478128,287.80767695713797
1767593588568,1767593588.523375,-26.750689824820718,8.180376956501167,-16.540683236345203,-23.065357532526143,201.80038135211421
1767593588568,1767593588.5272813,-21.332336726185947,25.71848246564767,-17.068359480117245,-18.11233996658957,71.72561989285515
1767593588568,1767593588.5311875,-16.402204722911012,35.76556298726828,-16.32057305763282,-14.901240775849022,-37.48525342257234
1767593588568,1767593588.5350938,-12.52091813672597,33.75265724919051,-15.908562924916257,-13.65300725595343,-83.21161747369996
1767593588654,1767593588.597125,-9.76662704464418,22.838250704106937,-16.935194203840247,-13.706620256882784,-62.837942609443004
1767593588654,1767593588.6010313,-7.8133938662047635,11.069535261191428,-19.35587375708311,-13.95143468262952,-2.8654141087585763
1767593588654,1767593588.6049376,-6.112278521653987,5.656462588907106,-22.42264117170674,-13.72177908835818,63.877741847986336
1767593588654,1767593588.6088438,-4.171184287688341,7.975824039848135,-25.580627576854162,-13.243750585032913,115.39472473074794
1767593588654,1767593588.61275,-1.9090882552093031,13.210077899072445,-28.806222171589603,-12.999831911951665,143.45735069064128
1767593588654,1767593588.6166563,0.2617794125066498,14.728916532214217,-32.15629304786745,-12.680968045366656,146.52218050110523
1767593588654,1767593588.6205626,1.821532172425333,8.81137008529908,-35.27655134606069,-11.088557495224642,126.73890271702481
1767593588654,1767593588.6244688,2.6278656039111765,-3.673735618303334,-37.595171857177924,-7.347874096181908,95.4146461411088
1767593588654,1767593588.628375,3.0268039415656203,-17.960860644467555,-38.969549161489894,-2.1641412235209505,71.2608663740902
1767593588654,1767593588.6322813,3.572460206677888,-27.383118062553756,-39.94571717750855,2.386868685992544,62.107643250923296
1767593588655,1767593588.6361876,4.652945272266737,-27.07597101778126,-41.291167440312755,4.512624836948394,51.121751787111634
1767593588655,1767593588.6400938,6.264429948987057,-17.819803621391497,-43.31167785105726,4.23797954553285,12.289435124096563
1767593588655,1767593588.601125,8.083003030431938,-6.087678316084779,-45.61545787562428,3.3555512356048256,-57.25221931756348
1767593588655,1767593588.6050313,9.84272139975712,0.550005775701289,-47.47126058499272,3.8650326583283134,-125.60970016334241
1767593588655,1767593588.6089375,11.708865630237176,-1.5633851813457573,-48.391336786991566,6.365151093830738,-149.41788289334053
1767593588655,1767593588.6128438,14.21940203451812,-10.780280874936905,-48.448540516856454,9.760811843913169,-108.77242457340758
1767593588655,1767593588.61675,17.73939242985411,-22.271044151510473,-48.11736003924566,12.29371085163994,-23.774563794411495
1767593588655,1767593588.6206565,21.879414643320604,-31.473314812578444,-47.84553825869482,12.841657547270104,58.22001368982049
1767593588655,1767593588.6245625,25.494490950137713,-36.99173796572719,-47.730225678587956,11.563252605960294,94.86796762625035
1767593588655,1767593588.6284688,27.475184115493253,-41.14663597872168,-47.50061602563702,9.686442617640736,77.71107705482883
1767593588655,1767593588.632375,27.743198302915363,-47.379984847189945,-46.75333909920171,8.763626972836468,35.511156502693744
1767593588655,1767593588.6362813,27.45209072293733,-56.72644319154816,-45.25220597208129,9.908425781698133,9.167216485143728
1767593588655,1767593588.6401875,28.017290564806526,-66.89200046466063,-43.11316866944653,13.35742908644518,18.18495297487258
1767593588655,1767593588.6440938,29.76335989298386,-74.57829780889925,-40.791797347115214,18.302821822552914,43.45824576490029
1767593588721,1767593588.657125,31.491537551084058,-78.26916006815924,-38.886657550255364,22.93680232540626,37.13367050211442
1767593588721,1767593588.6610312,31.526646505678983,-78.92005904765342,-37.839189188279484,25.056529550118327,-46.58604046420968
1767593588721,1767593588.6649375,29.36168922683833,-78.47472807232263,-37.680186311339355,23.37088367886516,-217.50446462126803
1767593588721,1767593588.6688435,26.286870749918744,-77.90438088150327,-37.999189336199834,18.636651166605652,-435.8300398355109
1767593588721,1767593588.67275,24.31588822664569,-76.93179731478364,-38.19899094831041,13.420333743436043,-631.8584312473322
1767593588721,1767593588.6766562,24.44729547543173,-76.0492942788165,-37.87919433023564,10.45902678973939,-743.1762130110582
1767593588721,1767593588.6805625,25.926722632573803,-77.94308699102919,-37.062840545301114,10.936781162708941,-739.0663303006761
1767593588721,1767593588.6844687,27.092434345954707,-84.74885066815634,-36.08362807709457,13.976950411773895,-624.8685159514126
1767593588721,1767593588.688375,26.872687433529826,-93.13938645937452,-35.22774655185976,17.527205165490095,-442.888078781519
1767593588721,1767593588.6922812,25.568610770872976,-94.38001308479029,-34.4507302484788,19.792648794188718,-270.3759612016196
1767593588721,1767593588.6961875,24.398902062592594,-81.90211045809447,-33.43879170767041,20.14827626517353,-191.52257419564665
1767593588721,1767593588.7000935,24.390127110268462,-58.79922313357094,-31.945743625710172,19.036854859000652,-242.21610594258024
1767593588802,1767593588.717125,25.593709869446904,-36.249879092823505,-30.03838981267117,17.27251618947418,-371.05584014851166
1767593588803,1767593588.7210312,27.1778107101636,-24.25746718955762,-28.000087759986595,15.562359917131277,-461.1051884833466
1767593588803,1767593588.7249374,28.147559819318666,-24.440605576220864,-26.073837879327094,14.469027831081588,-405.6724932694551
1767593588803,1767593588.7288437,27.956247461036043,-30.840105177708,-24.40714942470016,14.323759335482317,-183.4076001595388
1767593588803,1767593588.73275,26.570875951209405,-35.83146724764887,-23.220177424860758,14.874415037076906,124.03701585778349
1767593588803,1767593588.7366562,24.253356878586498,-35.063814560039916,-22.845924989092982,15.213313405235802,386.1942413625612
1767593588803,1767593588.7405624,21.46862750130367,-28.497828857755273,-23.445973171351444,14.396088740544535,508.2695689567879
1767593588803,1767593588.7444687,18.891008729593395,-18.710628897478085,-24.665003843637002,12.242627240370865,481.7007747070196
1767593588803,1767593588.748375,17.28501889813829,-9.058257356123326,-25.6180595381468,9.519019143126483,371.3111318225499
1767593588803,1767593588.7522812,17.255212860441816,-2.4936571215058376,-25.282759962892484,7.400171181867253,263.33667400560034
1767593588803,1767593588.7561874,18.932558706647242,0.08607424352604265,-23.015450251561383,6.75001827707212,215.81030839711707
1767593588803,1767593588.7600937,21.62643112465055,1.3897558774642969,-18.85812138517416,7.716003635267407,234.5894734618657
1767593588804,1767593588.751125,23.751455406337406,6.054599340980672,-13.504657175988973,9.808152843341826,281.0709358483837
1767593588804,1767593588.755031,23.516848243926372,15.59579393579791,-8.010225615708682,12.304156215412895,306.7771186411402
1767593588804,1767593588.7589376,20.235618778470567,25.728902986516957,-3.4092007628464356,14.527960756385797,291.77172589233373
1767593588804,1767593588.7628438,15.195144887667015,30.434899155841364,-0.3879919902188429,15.720221357814037,254.7160719346966
1767593588804,1767593588.76675,11.072392611583643,28.418758683750667,0.8908815178634413,14.938710483275864,227.03803513284814
1767593588804,1767593588.7706563,10.077977616065064,24.21139725303644,0.7818930508996501,11.617786841171057,220.37731433126035
1767593588804,1767593588.7745626,12.241937811553179,23.217508127158087,0.002117546681395188,6.430622434765339,219.96010709859945
1767593588804,1767593588.7784688,15.257318307624677,26.95106002985736,-0.5856306652818203,1.2893850315795903,205.60282144475
1767593588804,1767593588.782375,15.999164367494839,32.89596721445288,-0.17258245431915586,-1.882167072068077,175.58710836458468
1767593588804,1767593588.786281,12.557548377166741,37.60248177349366,1.8023771735688539,-2.5051629096349224,149.1412151848179
1767593588804,1767593588.7901876,5.504507069268618,39.281202810191914,5.404513510462775,-1.5403195785378365,143.3731314936749
1767593588804,1767593588.7940938,-2.2535075836563663,37.894920745066905,9.990537759677242,-0.4654986154031951,145.2730195388322
1767593588841,1767593588.777125,-7.064272615950895,33.60981489977239,14.313816373576643,-0.1314755852177098,110.18478713783685
1767593588841,1767593588.7810311,-6.821610700651188,25.99062595929835,17.123351527443987,-0.49769063203964464,-2.6205776054862477
1767593588841,1767593588.7849374,-2.4422246406768218,15.103136820257706,18.002402649008925,-1.195398954764995,-187.31180664552886
1767593588841,1767593588.7888436,2.7357388566006984,3.1588308135275325,17.81609119135964,-2.1096642328581066,-387.18974403457736
1767593588841,1767593588.79275,5.351213299140021,-5.260411903859923,18.260855618323543,-3.4632770057592945,-537.5200119629333
1767593588841,1767593588.796656,4.414124922471107,-4.929892977032556,20.7056899460535,-5.556592184974812,-612.666122858427
1767593588841,1767593588.8005624,1.7592980849136886,6.85703402371576,25.20934731747964,-8.448542281621934,-628.9657510454426
1767593588841,1767593588.8044686,0.11056235124021735,27.01499588916511,30.525342028990607,-11.671835565330657,-603.1546190188079
1767593588841,1767593588.808375,0.44113996266262406,46.20577772106806,35.05493592937032,-14.138088115752115,-515.6385406353586
1767593588841,1767593588.8122811,1.1443833055920072,53.90092353147349,37.91244792663762,-14.507183046652367,-325.6014894271874
1767593588841,1767593588.8161874,-0.23536133973022988,46.81792740385449,39.264785465155335,-12.046105116884105,-29.399192036733105
1767593588841,1767593588.8200936,-4.633690999707278,33.020879582836706,39.831960136498736,-7.481496620000685,300.4012024488061
1767593588929,1767593588.869125,-10.782520120187398,25.88852345620862,40.18270132727503,-3.0271219408348284,546.9777091726027
1767593588929,1767593588.8730311,-16.399444468177286,32.23103235110529,40.51622608243957,-1.1763769899653622,629.7847309983916
1767593588929,1767593588.8769374,-19.703217173895304,45.985193126349444,40.963610767880475,-2.959448583041384,555.6299831627435
1767593588929,1767593588.8808436,-20.108620815813747,53.71646500981626,41.86299863603484,-7.098559447772569,393.66657703932754
1767593588929,1767593588.88475,-18.15678477406858,46.49900302162345,43.62990601209282,-10.852096341262255,209.88208419850574
1767593588929,1767593588.888656,-15.106973583249944,27.549925537921023,46.409549246431794,-11.868812308545973,30.423737269320647
1767593588929,1767593588.8925624,-12.324057201092714,9.602875172534809,49.88488202794474,-9.595360417191177,-144.31768078337865
1767593588929,1767593588.8964686,-10.575296574996385,4.566445524047093,53.34486460099887,-5.366832574917296,-310.9959124156661
1767593588934,1767593588.900375,-9.695843210431812,14.352770121017118,55.9150769534578,-1.4681708170658854,-456.3607280400697
1767593588934,1767593588.9042811,-9.053698324995166,30.837597352177422,56.91211056042479,0.025384704304387107,-568.9195758256395
1767593588934,1767593588.9081874,-8.48780830032957,44.017636043781124,56.28153447116373,-1.823105083827364,-644.1221820367213
1767593588934,1767593588.9120936,-8.715189186617067,49.530734593349734,54.85229800591385,-6.2202396401162545,-672.6275826463583
1767593588934,1767593588.872125,-10.62499724595685,49.071768743531564,54.04073142761083,-10.738457626003918,-628.5791828376714
1767593588934,1767593588.8760312,-14.106891589036959,45.79813148972879,55.003126293407774,-12.545936795881719,-482.2193467388562
1767593588934,1767593588.8799374,-17.71120506677017,40.77116554004391,57.795248199288785,-10.353289542950545,-235.33362754938614
1767593588934,1767593588.8838437,-19.70204580415585,33.4274112677708,61.22424547379532,-5.609578872625052,55.100847610361754
1767593588934,1767593588.88775,-19.6102410710336,24.377913491425193,63.56505750862327,-1.7098935368626924,296.39263334681226
1767593588934,1767593588.8916562,-18.700702343108773,16.73368855911865,63.6225081567443,-1.5962713195824862,412.6846679474885
1767593588934,1767593588.8955624,-18.727991480950806,13.833984321096898,61.359600072951324,-5.635850068901598,389.0593979788582
1767593588934,1767593588.899469,-20.18728913455406,15.433464871139918,57.67636147574765,-11.51520063499971,275.6441595952249
1767593588934,1767593588.903375,-21.913833272106093,16.819532116998893,53.61520553417479,-16.11277051860364,152.23927926153095
1767593588934,1767593588.9072812,-22.329631114795276,12.585857032160009,49.71002274384518,-17.59527033511334,78.65942235475046
1767593588934,1767593588.9111874,-20.713139687852156,1.6210194048963542,45.959927711380516,-16.07954056451765,63.7330752018591
1767593588934,1767593588.9150937,-17.096293229703022,-11.563337268085286,42.23373166039211,-12.871299480754093,73.36493119881463
1767593588983,1767593588.929125,-11.371683942043143,-20.395997691406425,38.55106244801205,-9.456949285457503,68.22225042085209
1767593588983,1767593588.933031,-3.2276602707951287,-21.80510624320382,34.99515790536468,-6.9229467415835915,38.85627474861583
1767593588983,1767593588.9369376,6.635890699562023,-19.57159744363356,31.50352518444257,-5.571766226380744,13.24405907780873
1767593588983,1767593588.9408438,15.460951637427597,-22.24520575244013,27.842317013424275,-4.656594095626769,36.31401157442046
1767593588983,1767593588.94475,19.382986987960873,-35.707667879385,23.765861815444268,-2.7551355167152076,135.9823660923062
1767593588983,1767593588.9486563,16.323489480682003,-56.00288209730898,19.19072013501207,1.0690545491174708,294.2389211502358
1767593588983,1767593588.9525626,8.323767972890437,-70.35564789570442,14.309743077869548,6.280116021884151,444.53915394764846
1767593588983,1767593588.9564688,0.6387282719305976,-67.63694585648956,9.634154081071198,11.202514807077897,506.8349899829781
1767593588983,1767593588.960375,-2.169002614642544,-49.02345239059403,5.860147604518188,14.46865009189536,440.74768048824393
1767593588983,1767593588.964281,0.32775754567996873,-28.036731262925265,3.4765989170567666,16.100988549326512,274.5929872591085
1767593588983,1767593588.9681876,4.661593966305803,-19.78270306139587,2.3147771937263,17.20671771172952,85.78409913583356
1767593588984,1767593588.9720938,6.915720523197236,-29.85779537502705,1.483534052130151,18.800183696091004,-49.319366128801256
1767593589052,1767593588.957125,5.8850720209127765,-52.283726959023326,-0.08070686506806313,20.980768660936075,-96.2059247476257
1767593589052,1767593588.9610312,3.307642694581762,-76.0802904092033,-2.8064695229262933,23.067443505541082,-68.89097740890304
1767593589052,1767593588.9649374,1.7121764491541112,-93.11690744878642,-6.119270931487641,24.342165978546497,-7.075408290145199
1767593589052,1767593588.9688437,2.314688719461377,-101.22388068870414,-8.868325308101129,24.664799039628946,53.89189576983421
1767593589053,1767593588.97275,4.592799918316053,-102.57594916526848,-10.187612601537085,24.521156860038896,99.67786077405422
1767593589053,1767593588.9766562,7.254900589398556,-101.20064244667199,-10.056264012291313,24.68198013778301,134.68742453604622
1767593589053,1767593588.9805624,9.339144318471737,-101.69751577679973,-9.152466099755875,25.921037571383593,169.37115241648078
1767593589053,1767593588.9844687,10.598661162474642,-107.49517339601093,-8.270180672026406,28.859437229219182,207.60513511643484
1767593589053,1767593588.988375,11.243359331659208,-117.58985208846853,-7.879289527698951,33.59502999631736,239.58665966196241
1767593589053,1767593588.9922812,11.585753083990697,-125.20715381635895,-8.100041329501257,39.12378818719716,245.13790137540062
1767593589053,1767593588.9961874,11.964311271485165,-122.14208538601713,-8.891282344969206,43.30603565824818,210.11981657895387
1767593589053,1767593589.0000937,12.81726853487493,-105.85147918328472,-10.141456417735153,44.01851956311609,143.26151076419103
1767593589084,1767593589.017125,14.53596055477473,-81.92825666954442,-11.597163227987002,40.83895801453866,70.52389739385848
1767593589084,1767593589.0210311,17.077040360351685,-59.709765550345566,-12.814696445217635,35.6224437698297,6.549225213055404
1767593589084,1767593589.0249374,19.775060529081706,-46.04474334736562,-13.315134697422453,31.162160258326814,-64.34671140936533
1767593589084,1767593589.0288436,21.651438816819844,-41.985842320823316,-12.890841758700082,29.055736895423685,-172.09966539237925
1767593589084,1767593589.03275,21.951520189898417,-42.91084188606957,-11.805193517671004,28.703771079716756,-326.3283536726672
1767593589085,1767593589.036656,20.45219385784407,-41.30340432288892,-10.66180847043532,28.202201168554915,-499.9206250400825
1767593589085,1767593589.0405624,17.443315872277672,-31.170199198505756,-9.974479521078674,26.143930249769355,-642.4260534171023
1767593589085,1767593589.0444686,13.627048829156873,-11.361182623836648,-9.75645073282947,22.715773545793038,-704.2153004058209
1767593589085,1767593589.048375,10.064073152958798,14.507623807259089,-9.513795345980988,19.307314550143282,-653.9158547908064
1767593589085,1767593589.0522811,7.973329160649036,40.6351812820805,-8.708505924728083,17.22671361952198,-491.00823161217744
1767593589085,1767593589.0561874,8.243854376306318,61.80822009785494,-7.275276102690649,16.799963323619863,-256.05759982078644
1767593589085,1767593589.0600936,10.95304456870356,75.14981154032176,-5.672834942964075,17.545292220774062,-23.746806197060245
1767593589174,1767593589.062125,15.316612443702669,80.3230966528137,-4.431042461626928,18.935090043729016,134.71558795637242
1767593589174,1767593589.0660312,20.072662660988655,78.32424038482787,-3.7028099761982833,20.773559425713504,200.6918582334572
1767593589174,1767593589.0699377,23.96405431400687,70.69739079426684,-3.292998547935552,22.882002398606186,223.23350619403035
1767593589174,1767593589.0738437,26.110601052149647,60.74643980842206,-3.0718500784160065,24.657011385164957,275.1832197797534
1767593589174,1767593589.07775,26.244402780377996,54.738774613561034,-3.2720795782121725,25.106204634074388,382.210270874134
1767593589174,1767593589.0816562,24.738182964655493,59.47288985973504,-4.339607205189838,23.362409780865274,492.1327718372788
1767593589174,1767593589.0855625,22.351336028144456,76.831672878134,-6.48244661504961,19.264554693881138,519.2354062192023
1767593589174,1767593589.0894687,19.80280258334088,100.7336304392499,-9.339535258918328,13.604878087378378,423.5845744899113
1767593589174,1767593589.093375,17.41836874593173,120.20861649072805,-12.091489480680497,7.824828672150318,249.8684984688552
1767593589174,1767593589.0972812,15.025266801968082,126.4574655992151,-13.986256428836278,3.2366218494453114,92.79725824127897
1767593589174,1767593589.1011877,12.129852596773032,118.72919516886682,-14.887052163121826,0.23651838631889271,24.36125762293005
1767593589174,1767593589.1050937,8.342315203775922,104.95651434681416,-15.368970237524264,-1.8760667426591402,43.96882590512215
1767593589192,1767593589.140125,3.8546299617095445,96.13071888956229,-16.255195374494466,-4.25420074660313,87.36021666439132
1767593589193,1767593589.1440313,-0.4656980470714369,98.04279140743579,-17.9799328410964,-7.5167780426016435,84.26045288642274
1767593589193,1767593589.1479375,-3.65864028915512,107.42904118216119,-20.27697035056125,-11.27624677068933,16.717785488714213
1767593589193,1767593589.1518438,-5.5145257716114005,116.11170868933478,-22.36367429455218,-14.599170237101303,-71.78710164489958
1767593589193,1767593589.15575,-6.794547046879848,118.53209416098895,-23.426729522134757,-16.854585533909226,-121.74913766541117
1767593589193,1767593589.1596563,-8.500607127368461,115.2644662412362,-23.11056111096205,-18.03675764477067,-111.2391559665827
1767593589193,1767593589.1635623,-10.888513905463935,110.69179354373675,-21.78367784073182,-18.44132392243256,-68.06924050551838
1767593589193,1767593589.1674688,-13.212193882097962,108.69325136415402,-20.440174837152327,-18.390765245244147,-36.72453907325155
1767593589193,1767593589.171375,-14.472132459256313,110.09203824424668,-20.22043820506434,-18.35061139145499,-38.68218726983284
1767593589193,1767593589.1752813,-14.4819388437784,112.79904907844836,-21.77989798029198,-18.97556434615857,-63.256460679281105
1767593589193,1767593589.1791875,-14.197136204856696,113.63896452940425,-24.889127076076427,-20.703394029633966,-89.69714983509097
1767593589193,1767593589.1830938,-14.837846838010591,110.0020552073901,-28.501824479206267,-23.24181435305648,-110.14972600784677
1767593589224,1767593589.152125,-16.571282868697796,100.272824000544,-31.258623591695322,-25.53476115837128,-128.20628156512794
1767593589224,1767593589.1560311,-18.189374237373524,84.0182514126005,-32.22778204584047,-26.313780504235456,-140.53083966366742
1767593589224,1767593589.1599374,-18.239331426126242,62.984664896029315,-31.535932607371922,-24.834315542672428,-129.6388870287328
1767593589224,1767593589.1638436,-16.40881471364284,41.62449944799374,-30.418803630575283,-21.356809082602155,-80.1077384774977
1767593589224,1767593589.16775,-13.841721543541608,25.375685807388358,-30.45428374568975,-17.18772590018117,0.08961608438838375
1767593589224,1767593589.171656,-12.44141316599905,17.60284076913957,-32.40720705114468,-14.260120443944475,78.53651857523309
1767593589224,1767593589.1755624,-13.840106594652745,17.828146749220263,-35.594191923380485,-14.229330245238708,120.50568153604522
1767593589224,1767593589.1794686,-18.254567513680982,22.362000409747914,-38.30754630161482,-17.271072824749332,113.4624340244775
1767593589224,1767593589.183375,-23.78733307334684,26.471077587402355,-38.919225030277545,-21.467304826008146,72.6308637524936
1767593589224,1767593589.1872811,-27.371459539325905,26.789598271280326,-36.784963193807755,-23.92200404678858,25.658348496810806
1767593589224,1767593589.1911874,-27.17151585227027,22.57980602727619,-32.386812549884546,-23.255697524908207,-6.723189134430628
1767593589224,1767593589.1950936,-24.15912559904866,14.741271729403163,-26.821502673150807,-21.060367106493253,-15.774432775807783
1767593589250,1767593589.200125,-21.23636010541961,3.706157424593154,-21.157240529407282,-20.377286341061268,5.033440203308236
1767593589250,1767593589.2040312,-20.92396913010147,-10.55887389501444,-16.100558114831166,-22.515929706243142,66.09856235343247
1767593589250,1767593589.2079377,-23.71211230672466,-25.537189097032673,-11.99853523783178,-25.6873766743117,168.6044082758287
1767593589250,1767593589.2118435,-28.099085578758107,-34.33404981283303,-8.904870317021276,-27.056144324716037,283.45225480782653
1767593589250,1767593589.21575,-31.935417157045652,-29.642576598656692,-6.57441815040622,-25.900176878996803,352.4307524113886
1767593589250,1767593589.2196562,-33.912441286666116,-11.283438051791844,-4.533758928026378,-24.242811762102228,324.27032624654606
1767593589250,1767593589.2235625,-34.10350506823486,10.765381304964418,-2.3121671076497066,-24.276699549006892,198.52200714092683
1767593589250,1767593589.2274687,-33.3720289938798,22.367523147511985,0.35121320354677465,-25.62487615852185,34.379568011959876
1767593589250,1767593589.231375,-32.42163843291184,15.568873888125058,3.4492801543818183,-25.579463943559215,-89.1821921329111
1767593589250,1767593589.2352812,-31.38847953734891,-5.52201267393358,6.646967477384475,-22.06431127990772,-130.61493643091282
1767593589250,1767593589.2391877,-30.19781197820629,-27.827688854984356,9.172784416806564,-16.182009261634047,-111.97051899807076
1767593589250,1767593589.2430935,-29.122106969124154,-38.659231868295386,9.989221084416066,-11.71740531008775,-91.33427988106098
1767593589356,1767593589.242125,-28.755862328196592,-34.272300606564784,8.440375506576336,-12.055318337654885,-106.38880494054784
1767593589357,1767593589.2460313,-29.201254237916093,-21.709374808166373,4.90859445001556,-17.472371777693297,-141.9494646959239
1767593589357,1767593589.2499375,-29.175002111656624,-13.52575662582932,0.7619042715709083,-25.1904640442648,-151.99380985132987
1767593589357,1767593589.2538438,-26.15162151443501,-19.647149329773246,-2.4919541823629485,-31.643262042054424,-112.57075594673879
1767593589357,1767593589.25775,-18.074507685250936,-40.869062984341866,-4.169155626176841,-34.51504826908423,-51.946912714361154
1767593589357,1767593589.2616563,-5.775248867993299,-67.06249991388172,-4.766582509951967,-33.18825264574174,-27.972796836900514
1767593589357,1767593589.2655623,6.017254166322704,-82.34033335596435,-5.534205469556795,-28.25776707113175,-73.68390341083025
1767593589357,1767593589.2694688,10.758410432249624,-76.08611577925643,-7.628676726483929,-21.09932873290114,-162.78601507910372
1767593589357,1767593589.273375,4.374521889386329,-52.19564344413006,-11.417178991515643,-13.546799304686797,-229.56769997718388
1767593589357,1767593589.2772813,-11.498088322613865,-27.32203207440442,-16.330253441773205,-7.367081803944925,-226.2161210756768
1767593589357,1767593589.2811875,-29.974187341902013,-18.26552890150245,-21.27069084247419,-3.654715924815352,-163.07101404989942
1767593589357,1767593589.2850938,-42.751437552110964,-29.82064148722162,-25.262683309239154,-2.6087629250573716,-94.338522896816
1767593589366,1767593589.306125,-44.670880138076846,-53.56359868906311,-27.948725314447806,-3.902881092429065,-66.43192275714044
1767593589366,1767593589.3100312,-36.26039542072344,-76.657205185119,-29.66660229443405,-7.194115417361667,-79.32821723073033
1767593589366,1767593589.3139374,-22.911249040461545,-91.40921600112594,-31.089102830718215,-12.065837042211552,-92.09516424098067
1767593589366,1767593589.3178437,-11.283613585414598,-98.01248973101895,-32.68675152569757,-17.443811055651903,-61.36418350178954
1767593589366,1767593589.32175,-5.248941645498488,-100.33005756476054,-34.37401523219299,-21.368019537943336,20.782344315978804
1767593589366,1767593589.3256562,-4.047705360618342,-100.56016583651811,-35.547600912349516,-21.730799764741032,117.16911057552117
1767593589366,1767593589.3295624,-3.7919240067328293,-98.27751998930172,-35.495060453357326,-17.5665844496634,171.36755693621603
1767593589366,1767593589.333469,-0.9385622083580291,-93.37434505895901,-33.95678201865756,-9.911696188665784,150.26604695311983
1767593589366,1767593589.337375,5.0811106802261845,-87.91830385050527,-31.47121173440917,-1.5372731336754692,68.66701622137857
1767593589366,1767593589.3412812,12.003584257863757,-84.43650925294845,-29.178582731162624,4.420506144379877,-23.876618280452035
1767593589366,1767593589.3451874,17.14398131759622,-83.4717376521766,-28.117615491378157,6.205694979189565,-78.8921883700433
1767593589366,1767593589.3490937,19.698806488095446,-83.67674223535177,-28.48216821069926,4.452705195663071,-76.49477934822994
1767593589429,1767593589.333125,20.87725359328612,-83.64750826166542,-29.444799596086515,1.6302754533364832,-29.028936430895477
1767593589429,1767593589.3370314,22.119083673459688,-82.85380213057358,-29.814453370223955,0.189669540741488,33.62381585490311
1767593589429,1767593589.3409376,23.665009559505016,-81.08944618870646,-29.07758145888525,0.8814513566264391,83.9215044672858
1767593589429,1767593589.344844,25.05530129309045,-77.72576294442928,-27.848982354052072,2.6867879428084924,109.98003075031379
1767593589429,1767593589.34875,26.551832198200614,-71.91436617671793,-27.163112758015192,4.348194600611363,116.48959706368682
1767593589429,1767593589.3526564,29.377927092108834,-63.97095860355087,-27.23055857908931,5.992516311374741,117.5838143215323
1767593589429,1767593589.3565626,34.37613470693197,-56.63976674096936,-26.996449632949762,9.273593568778802,130.75040018606833
1767593589429,1767593589.3604689,40.736413319667825,-53.761536745704404,-25.08828308220046,15.80939076438838,171.9306948482493
1767593589429,1767593589.364375,46.25980743723507,-56.04635980322083,-21.242344779918774,25.235797607835092,243.4257906935878
1767593589429,1767593589.3682814,48.82615206404949,-58.25005877328276,-16.743482444647846,34.67951994234645,317.8698936671762
1767593589429,1767593589.3721876,47.70646883921275,-52.45583888191968,-13.42578107624602,40.37051701964454,341.15883021207816
1767593589429,1767593589.376094,43.88104760110127,-35.61459333396222,-12.206825615489022,40.22518574500122,268.75060140289634
1767593589449,1767593589.395125,39.43402422029104,-13.634160335398548,-12.478162160198266,35.267353606618144,110.94208739657424
1767593589449,1767593589.3990312,36.48435445639104,2.625169544497741,-12.752995569846178,28.78177028861055,-58.40705794026266
1767593589449,1767593589.4029374,36.17068458692143,5.844936578983863,-11.84334410714882,24.081053880995114,-146.40000475591302
1767593589449,1767593589.4068437,38.19879017592942,-1.9540475733291773,-9.564116186669484,22.68881472941933,-107.18828935989308
1767593589449,1767593589.41075,41.238868739301424,-10.588851793231443,-6.595640276140966,24.00483492377857,22.036939630099745
1767593589449,1767593589.4146562,43.93604550111887,-9.210127645351104,-3.8552117277168554,26.260698023874486,145.69743945961147
1767593589449,1767593589.4185624,45.73106197175955,5.293117221694027,-1.878230080665779,27.85282240155169,179.60393940515291
1767593589449,1767593589.422469,46.722989362960604,26.19278547944062,-0.4899888368935963,28.10040250773848,110.7395092578746
1767593589449,1767593589.426375,46.8469583157391,43.09497990940561,1.0926810088563035,27.05981490187385,-2.1742396092563223
1767593589449,1767593589.4302812,45.60801184771183,50.19609849462451,3.7290345467226897,24.956285471899367,-82.57546059764424
1767593589449,1767593589.4341874,42.85481766524476,49.3069473548754,7.71487460850814,22.07625453794269,-93.36206954053212
1767593589449,1767593589.4380937,39.4086850954729,46.63926122657718,12.549193691315416,19.096260935957943,-54.54030625158616
1767593589539,1767593589.467125,36.46389268085531,47.34355042045421,17.306276648320335,17.038289589623865,-18.47681038199584
1767593589539,1767593589.4710312,34.52297185841366,51.945959344026306,21.271841495149054,16.587297862350727,-27.479603721656453
1767593589539,1767593589.4749374,33.25927240581465,56.88875885573907,24.320722583562805,17.53360393417448,-83.40678863395088
1767593589539,1767593589.4788437,32.25948455151279,58.31015005881442,26.816054494820648,19.049282180159828,-148.91556241973143
1767593589539,1767593589.48275,31.48741371010353,55.196121396652465,29.221089573447948,20.51257935622642,-176.52011872702985
1767593589539,1767593589.4866562,30.937659941189246,49.13003304703963,31.768289552614306,21.971291072238,-140.1606983597878
1767593589539,1767593589.4905624,30.14640345765479,42.50905426494666,34.372683669558306,23.71686726133099,-47.591641138310685
1767593589539,1767593589.4944687,28.49541098336623,38.33383998169594,36.75186555829977,25.408574139050934,65.8192352398446
1767593589539,1767593589.498375,26.19645235302393,40.45142051865735,38.650321864442404,25.81143773650143,150.41826176174982
1767593589539,1767593589.5022812,24.57230142371215,50.98800529505192,40.05303069475606,23.67815537809021,159.9951384858074
1767593589539,1767593589.5061874,24.67493348452517,66.4258554691722,41.195050771684166,18.938075114361226,76.03445140582926
1767593589539,1767593589.5100937,25.429385085047723,78.05176197437179,42.284685992236426,12.814508963998351,-72.69846137196456
1767593589539,1767593589.486125,23.682856951485135,78.24021691872736,43.22934555133566,6.742826676601258,-216.84549017308453
1767593589539,1767593589.4900312,16.884874726818357,66.59231952418078,43.75961424197522,1.4598775268838073,-284.36280402389406
1767593589539,1767593589.4939375,6.189745342959042,49.949112496540835,43.89078058522593,-2.7522918892224255,-244.8302987615801
1767593589539,1767593589.4978435,-3.2253891286004146,36.934570392607796,44.18564446721831,-5.372096089597786,-127.37900805706613
1767593589539,1767593589.50175,-5.566308462955403,32.1890368832513,45.420889600588026,-5.720384274656682,-1.0113595326449598
1767593589539,1767593589.5056562,0.9841697452508348,34.52659500397254,47.88739880456673,-3.8184500411130724,66.87219366849934
1767593589539,1767593589.5095625,12.336293416201784,39.48930057863213,50.98503604976151,-0.9121846941912115,46.94540864522755
1767593589539,1767593589.5134687,21.006147109569223,43.23964250910474,53.545530218975564,1.065030895986013,-40.433363273282616
1767593589539,1767593589.517375,21.226245043277423,44.28804273436232,54.67519286466471,0.6557723829335771,-142.0926104608618
1767593589539,1767593589.5212812,12.700637305071739,42.69556428612228,54.4565469772081,-2.3069195634084507,-205.04216005117297
1767593589539,1767593589.5251875,0.2679363302750344,39.0132709664807,53.9254744136613,-6.768639637060973,-205.51045717545824
1767593589539,1767593589.5290935,-9.839775607210388,34.12958587983588,54.29165575988591,-11.232744723740264,-158.31019906607733
1767593589592,1767593589.527125,-14.042215418574875,29.207689976960797,56.02278106433532,-14.733053713544328,-103.71272295257506
1767593589592,1767593589.5310311,-13.124853422953418,25.25898497851709,58.567648298509084,-17.41428689768246,-81.20145917253998
1767593589592,1767593589.5349374,-11.038819047888937,22.73872252858505,60.901104144172535,-20.17865820401972,-104.29561383987269
1767593589592,1767593589.5388436,-11.865938127632381,20.993588608921748,62.33215231107191,-23.39718813388249,-149.0207150135366
1767593589592,1767593589.54275,-16.89608407244699,17.690548302722338,62.91059553417914,-25.74983329178144,-163.86259633398583
1767593589592,1767593589.546656,-23.841240482344464,9.976065534934484,63.25079902708926,-24.681740979501473,-100.92801179271314
1767593589592,1767593589.5505624,-28.948717896232957,-1.9100524866275372,64.00161468975068,-18.70385102177296,45.057763760148426
1767593589592,1767593589.5544686,-30.459265849906856,-12.046009731899128,65.28572279214072,-9.68944387010199,217.0371691882827
1767593589592,1767593589.558375,-30.34630466565008,-11.836633698692706,66.45763303850285,-2.6340375077115503,320.8169848236617
1767593589592,1767593589.5622811,-32.45808154703394,2.5363740104301824,66.4362414433124,-2.3090165048468223,288.89025328692566
1767593589592,1767593589.5661874,-38.606186004366336,25.49851949505856,64.42727646693757,-9.43387603347657,133.61494110798108
1767593589592,1767593589.5700936,-46.51917034030417,45.45447830643433,60.44206210853428,-20.039071826289202,-60.661791205163375
1767593589638,1767593589.588125,-51.9841874497089,53.00328249666899,55.218791385679815,-28.831131924937736,-200.6899240090822
1767593589639,1767593589.5920312,-53.13548198539843,46.58146735735972,49.73775452478114,-33.327909375265776,-244.39456553756108
1767593589643,1767593589.5959375,-52.34557507344284,31.755392791225972,44.796170909370524,-34.864717870474884,-211.13042744742182
1767593589643,1767593589.5998435,-53.61643259024569,16.24740872440013,40.88303030720078,-36.02936331164341,-148.70290490727223
1767593589644,1767593589.60375,-58.333802182726174,5.259486062700213,38.22167801153106,-37.667637392371624,-96.25336451103874
1767593589644,1767593589.6076562,-63.982198496643356,-0.045883436960766244,36.72274823085509,-38.48978530057804,-70.2971580213903
1767593589644,1767593589.6115625,-66.86113603581124,-1.5883770664557177,35.869897305002056,-37.08789674913585,-70.57742805255297
1767593589644,1767593589.6154687,-65.47841725771198,-2.9861118242249196,34.89672911996526,-33.712592386487074,-87.49387246158265
1767593589644,1767593589.619375,-61.1846037409898,-7.750005346137116,33.37239779062123,-29.97506674628057,-103.79084939894499
1767593589644,1767593589.6232812,-56.1240928420046,-16.208660411378247,31.621404967327226,-27.238392854880605,-99.12377703624816
1767593589644,1767593589.6271875,-51.21197441228343,-23.63760302356008,30.327158458105064,-25.630256598382264,-63.047532368797235
1767593589644,1767593589.6310935,-46.109990819705224,-23.753659029219573,29.62625358459647,-24.409524846940347,-6.24778039977173
1767593589667,1767593589.617125,-40.64114019924759,-16.05236786935189,28.779950782367113,-22.80335231640914,41.90485647614863
1767593589667,1767593589.6210313,-35.712487102723415,-8.844629408253587,26.881792259820163,-20.36000430912571,45.789447971529405
1767593589667,1767593589.6249375,-32.72552110732601,-12.917369735700557,23.75966228795636,-16.918165480473526,-24.115092325406046
1767593589667,1767593589.6288438,-32.25776061152637,-31.059198084848873,20.04087228485753,-12.710543437086086,-177.23035938135266
1767593589667,1767593589.63275,-33.4750836970122,-53.7788862767273,16.460042057685246,-8.501190505636957,-383.79835328004424
1767593589667,1767593589.6366563,-34.79093787839451,-66.20498661164142,13.285381876823198,-5.279196046867944,-568.2546322075307
1767593589667,1767593589.6405623,-35.00364358700598,-61.01744695621201,10.314250426059775,-3.565774403235044,-639.3438922103936
1767593589667,1767593589.6444688,-33.85818012239772,-45.716216290666054,7.153567699377005,-2.9673638212531666,-546.9452279217953
1767593589667,1767593589.648375,-31.724953133051773,-36.18052740162685,3.44765692461373,-2.4144515055116673,-319.87827499903466
1767593589667,1767593589.6522813,-28.94372221568931,-41.59885928712204,-0.9288415709196909,-0.8907843664020321,-52.64883153355365
1767593589667,1767593589.6561875,-25.574839334916245,-55.87287719663918,-5.647508177048779,1.9263886058611406,146.51316352251192
1767593589667,1767593589.6600938,-21.751569320084503,-64.64077855171885,-9.887705153620647,5.553240681181472,211.7104780237013
1767593589731,1767593589.678125,-18.07211468833376,-60.231655592180914,-12.762274470411397,9.086354675206351,151.25373334953275
1767593589731,1767593589.6820312,-15.327665603999062,-48.76886490060967,-14.040306003683547,11.76050812155945,39.49669767858895
1767593589731,1767593589.6859374,-13.685171589126067,-43.371147924794734,-14.481790488699964,13.409130853272467,-28.796581629098313
1767593589731,1767593589.6898437,-12.351501497994592,-51.85488029214162,-15.284536880749233,14.612709126716728,5.062442971781307
1767593589731,1767593589.69375,-10.385063894995547,-70.4669713048643,-17.06939260346303,16.26273780222873,130.47959691211062
1767593589731,1767593589.6976562,-7.859067652793512,-87.6636850553384,-19.408614430763333,18.644387800045322,275.9948052960772
1767593589731,1767593589.7015624,-5.89480089864901,-93.71375207710699,-21.311657518257924,20.874962326615655,355.1717470450741
1767593589731,1767593589.705469,-5.281906190967602,-88.02274436735439,-22.08245730098216,21.483264863824818,324.02439549944415
1767593589731,1767593589.709375,-5.17106677848788,-78.14635981232487,-21.791149778585172,19.73566109938332,209.5415592713827
1767593589731,1767593589.7132812,-3.480692336497996,-72.14320715347338,-21.175075317967465,16.431004917543778,85.02834498503371
1767593589731,1767593589.7171874,1.1800719641514026,-72.11923458163373,-21.177908718641728,13.462340746795766,14.12831660356539
1767593589731,1767593589.7210937,8.058895588847378,-74.26642506981472,-22.36267725563915,12.668780662227208,12.898026083750594
1767593589786,1767593589.708125,14.801825513382006,-73.44921670941841,-24.491817302213352,14.905644906293963,55.20196471204731
1767593589786,1767593589.7120314,19.307406370000717,-67.43100930562859,-26.60484206116444,19.725680900629563,103.39063223809795
1767593589786,1767593589.7159376,21.003186545208912,-57.94832720530845,-27.631648499627353,25.583903583276324,131.99698367661324
1767593589786,1767593589.719844,20.691671445270583,-48.5909228319043,-27.11615743553663,30.48909283647412,130.84959624872315
1767593589786,1767593589.72375,19.675639196293076,-41.607832995610906,-25.473412647087155,32.975628430007475,97.71936404905098
1767593589786,1767593589.7276564,19.09260481975716,-36.79946504921025,-23.583689435934716,32.882709683209235,37.6999434875805
1767593589786,1767593589.7315626,19.61459786523513,-33.255427043863456,-22.1382374116539,31.31192971417469,-27.475938756856944
1767593589786,1767593589.7354689,21.261409772130026,-30.756668577634407,-21.37061929748722,29.69203026923922,-58.00913643497719
1767593589786,1767593589.739375,23.362376537515768,-28.291925959947434,-21.33240997530726,28.63898852629968,-20.35329742736132
1767593589786,1767593589.7432814,24.942645672283735,-22.33999133194722,-22.200367096963554,27.61088857209921,76.43886938702745
1767593589786,1767593589.7471876,25.451913998070005,-9.192142442455923,-24.06918460105704,25.81223213670301,174.03885991452066
1767593589786,1767593589.751094,25.2117852359047,10.026582193064193,-26.412089752751978,23.501650832876713,208.1763456110013
1767593589893,1767593589.827125,25.09084142710241,27.90315274267857,-27.985372683303726,22.133355348864175,166.20722966987285
1767593589893,1767593589.831031,25.726071208265363,35.641932188791955,-27.571654477282507,22.966960021218767,100.9394019546364
1767593589893,1767593589.8349376,27.0537173899176,30.002166555256917,-24.995035117904337,25.678618549134324,84.63670037109573
1767593589893,1767593589.8388438,28.447761456469607,16.262614787074078,-21.4647241293412,28.491991142610363,145.1049757280811
1767593589893,1767593589.84275,29.156620235684507,5.027355596557331,-18.911811547298164,29.50133279782449,241.00872145986463
1767593589893,1767593589.8466563,28.713459542864737,4.9220606216834,-18.836826715204378,27.777059799598412,297.1857293259638
1767593589893,1767593589.8505626,27.205037340925976,16.2485366282317,-21.492734267540126,23.55308117259461,266.3849203609523
1767593589893,1767593589.8544688,25.22949015417781,31.045355922309295,-25.89331841431902,17.800372578590302,160.44673433998307
1767593589893,1767593589.858375,23.40484363900652,40.000266645579806,-30.52491326354587,11.66007306751884,27.999399017242574
1767593589893,1767593589.862281,21.748361068125575,39.84599692388066,-34.21875110873008,5.989426661187742,-88.68588785237537
1767593589893,1767593589.8661876,19.588648524890743,34.619772270420135,-36.68415587614651,1.1764144167203334,-173.22502973255575
1767593589893,1767593589.8700938,16.251095634074474,30.86571896034383,-38.496104961925525,-2.7181070428988177,-224.50455177849258
1767593589937,1767593589.872125,11.907857263928987,32.03529480607549,-40.536637030946494,-5.624749407421641,-240.56309070871077
1767593589937,1767593589.8760312,7.719434869599266,36.50219320306147,-43.12244078642648,-7.258493062216795,-215.4167837622076
1767593589937,1767593589.8799374,5.0877808159218745,39.931956454963334,-45.44276978479888,-7.353208306352267,-147.77953237019847
1767593589937,1767593589.8838437,4.668970710375036,39.574584672055785,-45.963641820554166,-6.215484829076161,-51.138318460962196
1767593589937,1767593589.88775,5.897800696217467,36.696472271360584,-43.66581105001915,-4.932622617343025,46.30441787141498
1767593589937,1767593589.8916562,7.3210205687852845,35.18488319046431,-39.07079323674044,-4.776902238573147,116.21610375360038
1767593589937,1767593589.8955624,7.522161628168336,38.13097578870521,-34.12091709913727,-6.310659796508105,147.70776250215977
1767593589937,1767593589.899469,6.002642102482259,45.624023391779915,-31.027871296869638,-9.124805236411003,149.30008492158387
1767593589937,1767593589.903375,3.3453927569656177,54.91938614473288,-30.999912925339814,-12.34714145388914,133.94880700418983
1767593589937,1767593589.9072812,0.592458586392551,62.18421608642594,-33.68690970982729,-15.193924712689814,106.36025635051463
1767593589937,1767593589.9111874,-1.5348473917984775,64.83154896140123,-37.59163817637554,-17.108140397038152,65.51754175052601
1767593589937,1767593589.9150937,-2.9497888959739056,63.04730007521548,-41.03793758402373,-17.781719237646527,14.037600553317489
1767593589955,1767593589.905125,-3.996784940488534,58.906723801552964,-42.96573660465915,-17.368488773957736,-37.679144333404075
1767593589955,1767593589.9090312,-5.079197467292421,53.8722398810352,-43.15521740168317,-16.63283878725439,-73.15736730192889
1767593589955,1767593589.9129374,-6.413714722797733,47.95960679369634,-42.06607269565165,-16.62563290481344,-75.41231732875852
1767593589955,1767593589.9168437,-7.964359740114339,41.662211003007116,-40.566126547782545,-17.968838395164116,-37.43017847307089
1767593589955,1767593589.92075,-9.462339070054357,37.383732750236014,-39.54352730374605,-20.373158744781186,28.29313750186855
1767593589955,1767593589.9246562,-10.460060969067397,37.71236190655123,-39.45131855878935,-22.951229324872116,93.41397091842131
1767593589955,1767593589.9285624,-10.489935660732597,42.705257278952594,-40.125207148988615,-25.113989891570736,131.13785250646325
1767593589955,1767593589.932469,-9.378620742362376,49.81996614152886,-41.05108426277387,-27.101486218013314,131.1631697579491
1767593589955,1767593589.936375,-7.540596042220357,56.372841026590685,-41.748052643172365,-29.473331815172603,99.13337804843238
1767593589955,1767593589.9402812,-5.908298611183147,61.420426049502645,-41.88725118227056,-32.05873583337464,45.749330734180916
1767593589955,1767593589.9441874,-5.4017054026327065,65.25641021307462,-41.25429927416185,-33.63445817747388,-20.554919323295227
1767593589955,1767593589.9480937,-6.359643965896722,67.4819269605795,-39.874389201448885,-32.95190480202042,-90.61976901822905
1767593589984,1767593589.917125,-8.485490466942055,65.87792796801573,-38.245886364167106,-30.2290534048271,-146.14853571647527
1767593589984,1767593589.9210312,-11.323909449574563,57.849200384029345,-37.29704672582609,-27.510492597293503,-158.62337092088407
1767593589984,1767593589.9249375,-14.667381698303235,43.97255291296844,-37.883069873548834,-27.28511326755593,-105.48596246298672
1767593589984,1767593589.9288435,-18.32405926433332,30.12429281733044,-40.11633026595933,-30.445350760812588,5.058914057737455
1767593589984,1767593589.93275,-21.445912358926304,24.66721979764391,-43.08022107809851,-35.361076060241835,127.06013851541485
1767593589984,1767593589.9366562,-22.3755563772147,31.98913608733742,-45.280938145325024,-38.99163972066358,202.58311026817896
1767593589984,1767593589.9405625,-19.71394738776429,48.07897374193061,-45.615106041298645,-39.299307809533296,200.68677476552432
1767593589984,1767593589.9444687,-13.966663521499248,62.23431790942909,-44.11431223466259,-36.92117225702646,136.03686248623683
1767593589985,1767593589.948375,-8.034904385328856,63.76797784482028,-41.842253910618304,-34.41058370580824,55.97419920783628
1767593589985,1767593589.9522812,-5.448468057131687,49.29569445053454,-40.07077243369242,-33.622393427562315,9.75351684599915
1767593589985,1767593589.9561875,-7.401235933551543,25.78420800757019,-39.492728216140826,-33.857445351412835,17.87427833061006
1767593589985,1767593589.9600935,-11.301046379459743,6.316167904805609,-40.07735094806108,-32.706376739386215,57.87165573042506
1767593590020,1767593589.963125,-12.66049665420852,0.6039733336909525,-41.46338869256057,-28.73527519200009,80.11420099296262
1767593590025,1767593589.9670312,-9.017324000727104,7.8251258087366224,-43.31143709324935,-23.317323330067243,47.095045383716275
1767593590026,1767593589.9709375,-2.1833431835025525,18.014389055426538,-45.23612182748415,-19.78189528948035,-34.78483469844571
1767593590026,1767593589.9748435,3.510256411630762,19.960267668018062,-46.52183586056543,-20.53423215395054,-116.77571318994335
1767593590026,1767593589.97875,5.14300108165857,8.462304954933042,-46.159018664315326,-24.68271194276832,-138.88389289429358
1767593590026,1767593589.9826562,3.3249413657129625,-13.021329906745786,-43.423267086398624,-28.401462118821673,-68.83298437262536
1767593590026,1767593589.9865625,0.9163655668477282,-34.00585598442497,-38.52504196186409,-27.823854025888874,71.649404912805
1767593590026,1767593589.9904687,0.33221362868061766,-42.36253823160479,-32.60591545701697,-21.90814357103573,210.07651201834744
1767593590026,1767593589.994375,1.989211016721846,-32.2109419137255,-26.97800511284345,-12.856717461612833,262.71495970948183
1767593590026,1767593589.9982812,4.588235268988238,-9.328531382637234,-22.318725625545657,-4.081852874780095,190.3169368388639
1767593590026,1767593590.0021875,6.423195771602367,11.413946301465158,-18.558262768344303,2.1881388946428157,28.668933733477196
1767593590026,1767593590.0060935,6.609339549701858,15.699791095628251,-15.433777316234476,5.742474612633728,-131.86780467769555
1767593590042,1767593589.992125,5.516567160480663,-0.8150588902479043,-13.022194505601995,7.584602634090195,-202.17710468138657
1767593590042,1767593589.9960313,4.3634122425430695,-29.952847663934286,-11.654852062162654,8.737689884315536,-145.69407397827982
1767593590042,1767593589.9999375,4.398869788503921,-56.476674121485345,-11.30171011629895,9.65090645028868,4.414295242971295
1767593590042,1767593590.0038438,6.171866759515148,-67.8148128377679,-11.09662879863391,10.334587438982588,166.99831247817758
1767593590042,1767593590.00775,9.28396064691842,-61.73552269549309,-9.579950518438833,10.897660459164511,258.3088877241954
1767593590042,1767593590.0116563,12.760783584567156,-46.78444105121257,-5.572110228302555,12.01181101017258,236.17342701866417
1767593590042,1767593590.0155623,15.780397093498493,-35.81662888097897,0.9705666173968683,14.811880265674715,121.92775390938735
1767593590042,1767593590.0194688,18.298098127767293,-37.93123306226839,8.765426395163772,20.113614003434346,-9.595012188564056
1767593590042,1767593590.023375,21.153625830078003,-53.54924009100621,15.852154188041807,27.47078010731882,-71.91175404160958
1767593590042,1767593590.0272813,25.348443849623628,-74.28268095357944,20.672313730471,34.893994818758046,-24.881502423859033
1767593590042,1767593590.0311875,30.675068052125706,-87.90125935367338,22.857762234758216,39.678130328968614,90.60586135310974
1767593590042,1767593590.0350938,34.873402150242995,-86.65395036265656,23.205082151336846,39.99354577321326,179.35645591151624
1767593590193,1767593590.082125,34.709910913668445,-73.10134549455971,22.925710990478652,36.20120987991242,167.8046357487515
1767593590193,1767593590.0860312,28.75656333453013,-57.80004771218422,22.8159050965997,30.79588565676114,64.14677247863543
1767593590193,1767593590.0899374,19.54616326158169,-50.60763370757721,22.991426056156687,26.810245888698745,-50.389016845536666
1767593590193,1767593590.0938437,12.67033738750883,-53.468349897826414,23.2577619867155,25.851137531186446,-87.05778221350612
1767593590193,1767593590.09775,12.820048327827108,-59.99827451960133,23.61390391830478,27.292516161867304,-15.296552290228524
1767593590193,1767593590.1016562,19.77872279168285,-60.894767411925706,24.381061553693925,29.048934181237698,117.71796755240399
1767593590193,1767593590.1055624,28.11515243829186,-50.95055553678806,25.899572234965113,29.057147228414404,222.29921316449528
1767593590193,1767593590.1094687,31.412415827289333,-32.88883669402439,28.11838015704837,26.367005114167444,229.74516655914582
1767593590193,1767593590.113375,27.514691041571666,-14.832969785689366,30.448665788782527,21.403112028251954,138.29673108077262
1767593590193,1767593590.1172812,20.013663173510903,-3.5127056308578006,32.05135794566739,15.628690201629485,7.651964803690316
1767593590193,1767593590.1211874,14.74374257847267,0.19844649559952157,32.41218174327471,11.04737100180918,-89.83795450379756
1767593590193,1767593590.1250937,14.723020967425336,-0.24442292607953553,31.78818280843651,9.709601388462863,-118.35035604916966
1767593590251,1767593590.173125,17.974465322080658,-1.436298543249718,31.11533925184051,13.017382811578694,-91.57006315005812
1767593590251,1767593590.1770313,19.563568306261775,-2.478608558004889,31.343090823461267,20.775372408611776,-48.40259289589077
1767593590251,1767593590.1809375,15.624232434353388,-4.418908880764631,32.67138842033344,30.669656058831354,-18.740558178139462
1767593590251,1767593590.1848438,6.19919861455005,-8.204633532802916,34.33821033094471,39.10338676453306,-7.664523580826635
1767593590251,1767593590.18875,-4.782089657584176,-12.818398716354057,35.175473324852284,43.227973969131085,-4.263454461616771
1767593590251,1767593590.1926565,-12.024120110240556,-15.127761062763174,34.48274050379278,42.59577767134035,2.166601742550217
1767593590251,1767593590.1965623,-12.118365653915319,-12.009205458241748,32.54470124516406,38.97794555904026,15.901725517242717
1767593590251,1767593590.2004688,-5.419828315886242,-3.0635484598396543,30.483996683831467,34.60225940196955,35.45812347357291
1767593590251,1767593590.204375,4.5418003262179445,8.478767510963305,29.60536431271756,30.497317942459414,48.679991896779455
1767593590251,1767593590.2082813,13.411140476542439,17.28548581597606,30.631464401238652,26.366468737091324,26.27803821814175
1767593590251,1767593590.2121875,18.371574037951422,18.928046217294014,33.314959608814235,21.855881755474464,-67.47769990138791
1767593590251,1767593590.2160938,19.17748876037937,12.903433153532681,36.73457249130674,17.7355836015707,-244.03472198560146
1767593590274,1767593590.220125,17.59195106513628,3.4620528155043315,40.04097856815861,15.669407922009439,-466.53788149546887
1767593590274,1767593590.2240312,15.899798742563062,-3.332977944067707,42.986406282169376,16.765798520508312,-661.624760387747
1767593590274,1767593590.2279377,15.567748008711588,-4.080744262323571,45.81312808673521,20.366088618361648,-763.0488420211685
1767593590274,1767593590.2318437,16.778378566648723,0.6293691009712608,48.733778275384935,24.2497991462759,-751.0165385872291
1767593590274,1767593590.23575,18.759601155541876,8.874285659748374,51.541814604332,26.07613357080178,-654.6774904111622
1767593590274,1767593590.2396562,20.35503116085855,19.601623452082826,53.61850091295025,24.852018340493405,-519.1740488621319
1767593590274,1767593590.2435625,20.46306967302404,31.474201115916525,54.25586212264911,21.33114941686423,-370.26416464226975
1767593590274,1767593590.2474687,18.35409447052194,41.322781191615235,53.14579531904888,17.213297419878106,-209.48820685779688
1767593590274,1767593590.251375,13.975577173403085,45.836095113541774,50.826425593907004,13.930877588338507,-38.90745828553251
1767593590274,1767593590.2552812,8.18045819141705,44.761591826543594,48.671601314852964,11.948631037967289,117.85920564757262
1767593590274,1767593590.2591877,2.6174408331752166,41.29512096796165,48.12501472068051,10.862635742603748,223.575531242799
1767593590274,1767593590.2630937,-0.9617205133927103,39.05590413155731,49.56728944718554,9.891808217381918,253.84861978976704
1767593590296,1767593590.232125,-1.8132142074256767,38.95800240987413,51.78683100914321,8.29706403977336,214.82309088160798
1767593590296,1767593590.2360313,-0.9199447330357249,38.79265063639502,52.71177690464332,5.678983844203184,140.12815823434624
1767593590296,1767593590.2399375,-0.4087552819159774,35.616473754662806,51.00963787852497,2.262934686696544,74.28555140681965
1767593590296,1767593590.2438438,-1.8271128994477017,28.882414035097476,47.29630974052297,-1.0237310195288538,52.93310098047092
1767593590296,1767593590.24775,-4.80850906258257,21.467577936455612,43.830112096221484,-3.015486541955785,86.26731156255107
1767593590296,1767593590.2516563,-7.531318210714225,17.458237596924736,42.77796543817702,-3.1659794318138403,152.6965655232508
1767593590296,1767593590.2555623,-8.53513668628321,18.908687438897815,44.48759145929493,-2.0859584438000582,209.69389536763254
1767593590296,1767593590.2594688,-7.9804555970438,24.70427314765459,47.29124176238158,-1.18829811546579,219.69968427560573
1767593590296,1767593590.263375,-7.130689201538074,31.87870881746775,48.950756910448476,-1.638389614746455,175.30234579295458
1767593590296,1767593590.2672813,-6.851448796919316,37.47039667566417,48.390175913037666,-3.452769935549038,103.54977758603842
1767593590302,1767593590.2711875,-6.858061098194612,39.76684009233663,46.295426619258336,-5.534987224617955,43.3425812484036
1767593590302,1767593590.2750938,-6.350401384530812,38.79523137607614,44.29059697163578,-6.672760543494205,14.983994057267086
1767593590325,1767593590.253125,-5.05199743725452,35.63620276523651,43.52544274983412,-6.620111344917507,11.632408935538125
1767593590325,1767593590.2570312,-3.434476287004237,31.02745317489196,43.830250747539374,-6.246458078070339,20.19646112091835
1767593590325,1767593590.2609377,-2.108417097929681,25.399359876933254,44.04932735525581,-6.635762044573607,44.06637522714136
1767593590325,1767593590.2648437,-1.3485322799511994,20.738559409952835,43.187583127365514,-8.043866184229758,96.5009970885252
1767593590325,1767593590.26875,-1.3121260509814228,20.82162378876805,41.32977834417757,-9.658601285796015,171.7860344136401
1767593590325,1767593590.2726562,-2.408386212638039,27.5744322556274,39.508446897542115,-10.258603310564045,233.27366132008612
1767593590325,1767593590.2765625,-5.035506708475546,37.44474379832846,38.677144325261054,-9.143120307764711,238.26793060318172
1767593590325,1767593590.2804687,-8.847641219183073,43.165278649414226,38.787154400972675,-6.66822529818023,174.2872307042251
1767593590325,1767593590.284375,-12.546599260339793,39.95058980601419,38.817176490898916,-4.126634414372508,68.76419870958283
1767593590325,1767593590.2882812,-14.733724169873067,29.772029692056684,37.665255123937555,-3.0778850280115524,-34.71756444304104
1767593590325,1767593590.2921877,-15.109700830556973,19.422765158247,35.0874450367216,-4.387670867979495,-107.35070403830962
1767593590325,1767593590.2960937,-14.804332735303108,14.08758298558205,31.944151329803983,-7.374443343028832,-143.6468146916079
1767593590327,1767593590.278125,-15.434533027642813,12.236032932474444,29.612637370927573,-9.717111752764923,-142.48977681343845
1767593590327,1767593590.2820313,-17.687903857527946,7.108613995085711,29.009828379236637,-8.692906301193327,-86.09378679242916
1767593590327,1767593590.2859375,-20.672264680187563,-5.565454959014396,29.91749152632781,-3.38611540529019,50.369572713514316
1767593590327,1767593590.2898438,-22.658539821760844,-20.85011710025694,31.08874318293113,3.7361467309947116,257.5460509717185
1767593590327,1767593590.29375,-22.617819191801807,-26.6653277483704,31.058196096186446,7.640282094545843,462.3073903951438
1767593590327,1767593590.2976563,-21.06699193950989,-14.17927927481356,29.079193121543085,4.030565347622505,555.0378330900714
1767593590327,1767593590.3015623,-19.2511410521421,12.86243879980709,25.555697386691854,-7.112957590321317,464.9687425104191
1767593590327,1767593590.3054688,-17.503598528725078,38.847957361637704,21.719839031860488,-20.78044620474834,221.2775909736849
1767593590327,1767593590.309375,-14.77788631517483,46.791558526135475,18.79358246193544,-30.016488796888844,-55.02460138971893
1767593590327,1767593590.3132813,-10.101151411692683,30.326271132204344,17.159897675188972,-30.73100719863797,-225.92799398718753
1767593590327,1767593590.3171875,-4.324467041918645,-1.372766702439244,16.064301364522137,-24.606927063371373,-224.69221620201992
1767593590327,1767593590.3210938,-0.04306034421984005,-29.147558060940305,14.079243128125201,-17.870623113265975,-95.2968709011719
1767593590415,1767593590.338125,0.4309482204208446,-36.75563015581845,10.05992548986775,-16.73879984108455,45.73140442667474
1767593590415,1767593590.3420312,-2.9508192845923205,-22.38998541459862,3.9184303301402683,-22.848602717358204,97.01140577297551
1767593590415,1767593590.3459375,-7.995882670724018,0.22762122335138124,-3.34124102736075,-32.17931559530147,41.698044919803365
1767593590415,1767593590.3498435,-12.220290262145253,12.443666810468281,-10.308611587461629,-38.35215379703112,-52.39199612211886
1767593590415,1767593590.35375,-14.733102561702838,4.419437843233297,-16.057454081083073,-37.54220609309959,-93.40376729664253
1767593590415,1767593590.3576562,-16.307203953371438,-18.53511596829132,-20.647441353370624,-30.93883233951312,-35.34773188277285
1767593590415,1767593590.3615625,-17.964808047500032,-40.9208749082427,-24.90885071858993,-23.101049062694752,90.47653137871158
1767593590415,1767593590.3654687,-19.847416662126015,-48.88265946358766,-29.67371742839976,-18.18699636665248,200.10496153425356
1767593590415,1767593590.369375,-21.416789136578195,-39.985398228529775,-35.07167951970161,-17.39200013627824,219.4259417241496
1767593590415,1767593590.3732812,-22.350787874127477,-23.617931223913548,-40.43410614417882,-19.186250561839007,137.05870341095263
1767593590415,1767593590.3771875,-22.9382922053121,-12.608331618736598,-44.75505736851407,-21.318724906445805,4.654375668395826
1767593590415,1767593590.3810935,-23.67604260361039,-14.39042780796558,-47.26380056538202,-22.52549252285801,-110.56545770760464
1767593590421,1767593590.368125,-24.718254174976426,-28.809557760386188,-47.81083831457754,-22.797865748999275,-172.8276260368556
1767593590421,1767593590.3720312,-25.77563271171784,-51.398040554980014,-46.98157161784393,-22.574675278397407,-185.5702002575702
1767593590421,1767593590.3759377,-26.39599566653188,-76.7474991813626,-45.845242090651965,-21.968997449099945,-165.7810347645586
1767593590421,1767593590.3798437,-26.18419432537191,-99.84608438044721,-45.363776530066446,-20.71486393950817,-119.25194101324455
1767593590421,1767593590.38375,-24.75782642368734,-116.9288187583785,-45.827940635457495,-18.602442410065592,-42.93070840262754
1767593590421,1767593590.3876562,-21.707727422649032,-126.9570745652805,-46.77223148857685,-15.788599201862375,49.66345460950785
1767593590421,1767593590.3915625,-16.89381487836349,-132.57194072771088,-47.41762487878384,-12.69503600235437,110.96007508345303
1767593590421,1767593590.3954687,-10.88400359196364,-138.5062601469592,-47.247898969422906,-9.624132454479994,78.87542207157207
1767593590421,1767593590.399375,-4.921414908028084,-147.30910316033612,-46.278375146308065,-6.433624894915281,-74.81515307727973
1767593590421,1767593590.4032812,-0.20298757428285574,-155.7693434621876,-44.87349510523057,-2.640901020367887,-313.0537174774252
1767593590421,1767593590.4071877,2.9028743107278205,-156.48112609492063,-43.3406010347839,2.0169997878239183,-554.8210759737226
1767593590421,1767593590.4110937,4.8948989931749365,-144.42357615715875,-41.7149766703157,7.093797611676107,-731.4532754426643
1767593590495,1767593590.414125,6.455304791308768,-122.385285093828,-39.94373474618257,11.551272494395077,-824.3611054454304
1767593590495,1767593590.4180312,7.872921389986492,-99.62149123900198,-38.19600080829212,14.395343005034974,-853.3764773999824
1767593590495,1767593590.4219377,9.124572220054038,-85.23495888651794,-36.846403790040576,15.306399324721806,-836.2931805326929
1767593590495,1767593590.4258437,10.254993850799803,-82.18930707249531,-36.09809334480132,14.86327069703455,-764.9473968871991
1767593590495,1767593590.42975,11.476180170120177,-85.504198366498,-35.68225353393085,14.240063382331824,-623.2991583616982
1767593590495,1767593590.4336562,12.996347793033273,-84.97944272820182,-34.97650204266379,14.47673510498474,-429.1835037949862
1767593590496,1767593590.4375625,14.897462701350022,-71.81134095991298,-33.44149822640943,15.718553794875941,-251.4928771472531
1767593590496,1767593590.4414687,17.099365914742172,-45.71047735272681,-31.031729985871948,17.028424918352886,-172.6628047735712
1767593590496,1767593590.445375,19.293024652876117,-15.887278622697686,-28.29236271156606,17.074669554498563,-223.59184092280069
1767593590496,1767593590.4492812,20.91594741469259,6.765460115638402,-26.06098151076363,15.229408848559265,-352.76397989325636
1767593590496,1767593590.4531877,21.322099649554694,19.270937155199242,-24.964675080801317,12.124005562676802,-459.8992562054107
1767593590496,1767593590.4570937,20.117528164963755,27.958767942915934,-25.06265361931567,9.135990498581979,-464.06489187666017
1767593590614,1767593590.517125,17.45511146178782,40.31520999700982,-25.858781124417433,7.315035955939455,-352.7506329811263
1767593590614,1767593590.5210311,14.071070234543189,56.07988461804654,-26.620775277834202,6.811663349575288,-181.5123685437995
1767593590614,1767593590.5249374,10.983209441768585,66.99128687034597,-26.763393987634714,7.252447383981541,-28.562428693429805
1767593590614,1767593590.5288436,8.997087076093703,65.74587612854081,-26.06949493921034,8.399346526869925,63.740930602023
1767593590614,1767593590.53275,8.345215504758661,55.07197929173465,-24.66417110976846,10.222867254834108,114.65350776976568
1767593590614,1767593590.536656,8.70483976551187,46.912398642436564,-22.835322710360316,12.417343425877359,173.74466856923493
1767593590614,1767593590.5405624,9.5042489565101,51.68444900285399,-20.88712963731715,14.135590927277915,263.6554890128855
1767593590614,1767593590.5444686,10.211654558451063,68.47375179191744,-19.122758236485964,14.394291250715236,357.22673133087693
1767593590615,1767593590.548375,10.458134932239332,86.05157060029649,-17.859800751296447,12.768505043850011,408.61624364947664
1767593590615,1767593590.5522811,10.063109534195458,92.74012640634281,-17.302132963883658,9.738682509675732,398.10970514190456
1767593590615,1767593590.5561874,9.000226276795946,84.94570770658827,-17.275241228180672,6.481666985557147,345.271039105172
1767593590615,1767593590.5600936,7.327304980191135,68.06231364338738,-17.1370399962551,4.283011167662001,287.31955266876463
1767593590621,1767593590.565125,5.24487358422444,51.579044061697665,-16.142285002752185,3.8507869921461086,251.35159547566633
1767593590621,1767593590.5690312,3.310330980670035,42.92812934630395,-14.011690252178347,4.933333228874606,245.32397820022396
1767593590621,1767593590.5729375,2.429702321737213,43.326824866880436,-11.103194662430226,6.601478985677366,267.502526280887
1767593590621,1767593590.5768435,3.3325550015071834,47.90249012635473,-8.00340128423412,8.005089290570087,313.8529902559594
1767593590621,1767593590.58075,5.902114672893088,50.1546922677214,-5.038553108857043,8.88860374197752,371.1160017429047
1767593590621,1767593590.5846562,9.038764174727202,46.931315606516726,-2.246723025741689,9.410346479021277,410.7859132475
1767593590621,1767593590.5885625,11.217399100337756,39.714235899363224,0.24396592710425136,9.582709803738515,403.7023069423151
1767593590621,1767593590.5924687,11.258867440151498,32.29860136523394,1.9703403920578655,9.027127600721972,344.9380550561187
1767593590621,1767593590.596375,8.80012604394104,27.895293106571284,2.397322789503474,7.349331529658686,259.700542057145
1767593590621,1767593590.6002812,4.337893925888598,27.49948418244146,1.4363603314027302,4.723667191254413,183.34108226568998
1767593590621,1767593590.6041875,-1.019415497466739,29.764137901319554,-0.3839460897637149,1.987129684880329,137.7961299178032
1767593590621,1767593590.6080935,-5.9240499386875936,32.250412234023216,-2.292068520864878,0.04657286566633814,123.89735148871156
1767593590643,1767593590.592125,-9.138132136815171,33.02012973298903,-3.749490050272683,-0.8255513315060864,128.44236267398531
1767593590643,1767593590.5960312,-9.823176626565065,31.11130012001778,-4.570447063785488,-1.0920901828417684,136.62321687400373
1767593590643,1767593590.5999374,-7.872262211095229,26.211803950631232,-4.74952803066625,-1.396402336761278,142.4614175396198
1767593590643,1767593590.6038437,-4.2121948882888365,19.023274322496718,-4.32742637633342,-1.9831547611423446,150.38248527147098
1767593590643,1767593590.60775,-0.6426745188470486,11.995532568278172,-3.4057898250040983,-2.673380813590362,165.76012745361606
1767593590643,1767593590.6116562,1.0379312958586544,8.564894362806443,-2.167544964675156,-3.3144663325266692,183.9784478626583
1767593590643,1767593590.6155624,0.08550193734549585,10.786442562885851,-0.78028195103081,-4.132361768649796,190.8163209008096
1767593590643,1767593590.6194687,-2.8357873192667724,17.597429869682056,0.743352171742803,-5.576413048558599,174.573327147001
1767593590643,1767593590.623375,-6.212942563937734,25.420147050807273,2.546426844700371,-7.808961689853071,137.9018407199463
1767593590643,1767593590.6272812,-8.57751282107175,30.56139838578088,4.743667303139805,-10.351062753009886,97.86053347981198
1767593590643,1767593590.6311874,-9.123918431640385,31.593350070823533,7.221245268438076,-12.265560352838847,72.68069442659814
