unix_ms,lsl_unix_ts,TP9,AF7,AF8,TP10,Right AUX
1767829402968,1767829402.915125,-24.90234375,-41.50390625,-47.36328125,-36.1328125,51.7578125
1767829402968,1767829402.9190311,-32.2265625,-48.33984375,-45.8984375,-43.45703125,-54.19921875
1767829402968,1767829402.9229374,-30.76171875,-49.8046875,-45.8984375,-42.96875,-110.3515625
1767829402968,1767829402.9268436,-26.85546875,-44.921875,-46.38671875,-33.203125,-46.38671875
1767829402968,1767829402.93075,-35.15625,-45.8984375,-42.48046875,-27.34375,-42.48046875
1767829402968,1767829402.9346561,-36.1328125,-43.45703125,-38.0859375,-33.69140625,-140.13671875
1767829402968,1767829402.9385624,-39.0625,-47.8515625,-44.43359375,-43.45703125,-166.9921875
1767829402968,1767829402.9424686,-38.0859375,-51.26953125,-48.828125,-38.0859375,43.9453125
1767829402968,1767829402.946375,-34.66796875,-46.38671875,-44.43359375,-29.296875,359.375
1767829402968,1767829402.9502811,-33.69140625,-36.62109375,-44.43359375,-41.50390625,5.859375
1767829402968,1767829402.9541874,-37.109375,-38.0859375,-45.8984375,-48.828125,-233.3984375
1767829402968,1767829402.9580936,-41.50390625,-37.59765625,-38.57421875,-46.38671875,-78.61328125
1767829403057,1767829402.975125,-31.73828125,-30.2734375,-39.0625,-48.33984375,-8.30078125
1767829403057,1767829402.9790313,-28.80859375,-27.83203125,-43.9453125,-48.33984375,-28.80859375
1767829403057,1767829402.9829376,-34.1796875,-31.73828125,-42.48046875,-50.78125,8.30078125
1767829403057,1767829402.9868438,-35.64453125,-33.203125,-39.55078125,-46.38671875,164.0625
1767829403057,1767829402.99075,-36.1328125,-27.83203125,-38.57421875,-44.43359375,22.94921875
1767829403057,1767829402.9946563,-42.48046875,-21.97265625,-41.015625,-48.33984375,8.30078125
1767829403057,1767829402.9985626,-51.26953125,-15.625,-42.48046875,-46.875,237.79296875
1767829403057,1767829403.0024688,-50.78125,-6.8359375,-34.1796875,-36.62109375,301.26953125
1767829403057,1767829403.006375,-47.36328125,3.90625,-30.2734375,-41.50390625,50.78125
1767829403057,1767829403.0102813,-41.9921875,0.0,-34.1796875,-49.8046875,-134.27734375
1767829403057,1767829403.0141876,-42.48046875,-3.41796875,-33.203125,-52.24609375,-100.5859375
1767829403057,1767829403.0180938,-47.36328125,-7.32421875,-28.3203125,-57.6171875,-102.5390625
1767829403073,1767829403.006125,-50.29296875,-14.16015625,-23.92578125,-54.6875,-101.5625
1767829403073,1767829403.0100312,-48.828125,-12.20703125,-27.34375,-57.6171875,2.44140625
1767829403073,1767829403.0139375,-44.43359375,-18.06640625,-31.73828125,-56.640625,246.09375
1767829403073,1767829403.0178437,-53.22265625,-22.4609375,-33.203125,-60.05859375,198.73046875
1767829403073,1767829403.02175,-54.6875,-11.23046875,-26.3671875,-62.01171875,-299.8046875
1767829403073,1767829403.0256562,-40.52734375,-14.6484375,-25.390625,-52.734375,-285.15625
1767829403073,1767829403.0295625,-38.0859375,-18.5546875,-31.25,-56.15234375,53.7109375
1767829403073,1767829403.0334687,-45.41015625,-16.11328125,-28.80859375,-59.08203125,32.71484375
1767829403073,1767829403.037375,-51.7578125,-15.13671875,-31.25,-63.4765625,-61.5234375
1767829403073,1767829403.0412812,-45.41015625,-13.671875,-31.25,-63.4765625,-115.72265625
1767829403073,1767829403.0451875,-37.109375,-18.5546875,-22.4609375,-51.26953125,153.3203125
1767829403073,1767829403.0490937,-49.31640625,-19.04296875,-21.97265625,-58.59375,208.0078125
1767829403133,1767829403.051125,-63.4765625,-11.23046875,-28.80859375,-73.73046875,-105.95703125
1767829403133,1767829403.0550313,-64.453125,-11.23046875,-29.296875,-76.171875,9.27734375
1767829403133,1767829403.0589375,-63.4765625,-19.04296875,-27.83203125,-68.84765625,72.265625
1767829403134,1767829403.0628438,-62.01171875,-20.5078125,-28.3203125,-62.98828125,-29.296875
1767829403134,1767829403.06675,-51.7578125,-13.18359375,-29.296875,-55.17578125,-163.57421875
1767829403134,1767829403.0706563,-49.31640625,-12.20703125,-29.78515625,-46.38671875,-67.87109375
1767829403134,1767829403.0745625,-56.15234375,-13.18359375,-31.25,-49.31640625,232.91015625
1767829403134,1767829403.0784688,-52.24609375,-8.30078125,-30.2734375,-50.78125,204.1015625
1767829403134,1767829403.082375,-42.96875,-3.90625,-29.78515625,-37.59765625,-27.83203125
1767829403134,1767829403.0862813,-52.24609375,-13.671875,-34.1796875,-40.0390625,-35.15625
1767829403134,1767829403.0901875,-49.8046875,-20.01953125,-40.0390625,-51.7578125,81.54296875
1767829403134,1767829403.0940938,-37.59765625,-8.30078125,-42.96875,-55.17578125,8.7890625
1767829403160,1767829403.110125,-44.43359375,-12.6953125,-43.9453125,-53.22265625,-76.171875
1767829403160,1767829403.1140313,-50.29296875,-20.01953125,-45.41015625,-52.734375,-26.85546875
1767829403160,1767829403.1179376,-35.15625,-12.6953125,-41.50390625,-46.875,40.0390625
1767829403160,1767829403.1218438,-24.90234375,-12.20703125,-39.55078125,-41.50390625,-74.70703125
1767829403160,1767829403.12575,-34.66796875,-19.04296875,-42.96875,-53.22265625,-147.4609375
1767829403160,1767829403.1296563,-37.59765625,-20.01953125,-47.8515625,-56.15234375,175.78125
1767829403160,1767829403.1335626,-40.0390625,-12.20703125,-49.31640625,-51.26953125,207.51953125
1767829403160,1767829403.1374688,-42.48046875,-3.90625,-53.7109375,-56.640625,-190.4296875
1767829403160,1767829403.141375,-31.25,-0.48828125,-54.6875,-56.15234375,-169.921875
1767829403160,1767829403.1452813,-24.90234375,7.32421875,-48.828125,-53.22265625,-70.3125
1767829403160,1767829403.1491876,-27.34375,7.8125,-49.8046875,-49.31640625,-103.515625
1767829403160,1767829403.1530938,-18.06640625,2.9296875,-51.26953125,-50.29296875,-167.48046875
1767829403205,1767829403.155125,-14.16015625,3.41796875,-55.17578125,-43.9453125,-115.234375
1767829403205,1767829403.1590312,-22.94921875,1.46484375,-62.98828125,-44.43359375,73.2421875
1767829403205,1767829403.1629374,-21.484375,5.859375,-63.4765625,-50.78125,-5.859375
1767829403205,1767829403.1668437,-13.18359375,1.46484375,-60.546875,-46.875,-206.0546875
1767829403205,1767829403.17075,-9.27734375,-5.37109375,-61.03515625,-38.57421875,-89.35546875
1767829403205,1767829403.1746562,-11.71875,-6.34765625,-62.98828125,-38.57421875,-24.4140625
1767829403205,1767829403.1785624,-5.859375,-5.859375,-58.10546875,-28.80859375,-20.5078125
1767829403205,1767829403.1824687,-6.8359375,-5.859375,-53.7109375,-30.76171875,-92.28515625
1767829403205,1767829403.186375,-13.671875,-14.16015625,-55.6640625,-29.78515625,-25.390625
1767829403205,1767829403.1902812,-2.44140625,-15.625,-57.6171875,-15.625,227.5390625
1767829403205,1767829403.1941874,3.41796875,-2.9296875,-58.10546875,-8.7890625,47.36328125
1767829403205,1767829403.1980937,-6.34765625,-5.859375,-53.7109375,-10.25390625,-158.69140625
1767829403257,1767829403.200125,-2.9296875,-11.23046875,-49.31640625,-4.39453125,28.3203125
1767829403257,1767829403.2040312,-3.90625,-13.671875,-50.29296875,6.8359375,142.08984375
1767829403257,1767829403.2079375,-13.18359375,-13.18359375,-45.41015625,1.46484375,-17.578125
1767829403257,1767829403.2118437,-11.23046875,-9.27734375,-44.43359375,-4.39453125,-102.5390625
1767829403257,1767829403.21575,-3.41796875,-18.5546875,-43.9453125,5.859375,87.40234375
1767829403257,1767829403.2196562,-0.9765625,-15.13671875,-36.1328125,11.23046875,230.46875
1767829403257,1767829403.2235625,-6.34765625,-8.30078125,-35.15625,1.46484375,77.63671875
1767829403257,1767829403.2274687,-4.8828125,-9.27734375,-40.52734375,3.90625,-95.703125
1767829403257,1767829403.231375,3.90625,-9.765625,-41.50390625,20.01953125,99.609375
1767829403257,1767829403.2352812,-1.953125,-13.18359375,-40.52734375,15.625,142.08984375
1767829403257,1767829403.2391875,-5.859375,-10.7421875,-49.8046875,3.41796875,-91.796875
1767829403257,1767829403.2430937,-11.71875,-13.18359375,-56.15234375,0.0,-75.1953125
1767829403301,1767829403.245125,-14.6484375,-16.6015625,-49.8046875,2.44140625,-30.76171875
1767829403302,1767829403.2490313,-19.04296875,-19.04296875,-47.8515625,-3.90625,67.87109375
1767829403302,1767829403.2529376,-27.83203125,-24.4140625,-49.31640625,-18.06640625,-5.37109375
1767829403302,1767829403.2568438,-33.203125,-30.2734375,-49.8046875,-24.90234375,50.29296875
1767829403302,1767829403.26075,-39.55078125,-30.76171875,-55.6640625,-31.73828125,75.1953125
1767829403302,1767829403.2646563,-36.62109375,-27.34375,-57.6171875,-45.41015625,34.66796875
1767829403302,1767829403.2685626,-29.78515625,-29.296875,-56.15234375,-50.78125,42.48046875
1767829403302,1767829403.2724688,-31.73828125,-34.1796875,-55.6640625,-44.921875,158.203125
1767829403302,1767829403.276375,-35.15625,-36.62109375,-59.08203125,-48.33984375,306.15234375
1767829403302,1767829403.2802813,-27.83203125,-36.1328125,-60.05859375,-50.78125,63.4765625
1767829403302,1767829403.2841876,-29.296875,-46.875,-57.6171875,-44.921875,-93.75
1767829403302,1767829403.2880938,-44.43359375,-53.7109375,-57.6171875,-32.2265625,-34.66796875
1767829403342,1767829403.290125,-58.59375,-56.640625,-54.6875,-21.97265625,-115.234375
1767829403342,1767829403.2940311,-61.5234375,-55.17578125,-47.8515625,-13.18359375,-111.328125
1767829403342,1767829403.2979374,-59.5703125,-52.734375,-34.66796875,-9.765625,-64.94140625
1767829403342,1767829403.3018436,-68.84765625,-62.98828125,-36.1328125,-22.94921875,167.96875
1767829403342,1767829403.30575,-72.265625,-61.5234375,-46.38671875,-31.25,290.0390625
1767829403342,1767829403.3096561,-59.5703125,-49.8046875,-45.8984375,-39.55078125,-24.4140625
1767829403342,1767829403.3135624,-45.8984375,-49.8046875,-41.9921875,-44.921875,-59.5703125
1767829403342,1767829403.3174686,-38.57421875,-53.22265625,-41.9921875,-40.52734375,151.85546875
1767829403342,1767829403.321375,-40.0390625,-48.828125,-39.55078125,-38.0859375,171.875
1767829403342,1767829403.3252811,-38.57421875,-44.921875,-34.66796875,-41.50390625,-172.36328125
1767829403342,1767829403.3291874,-31.73828125,-47.8515625,-33.203125,-39.0625,-190.4296875
1767829403342,1767829403.3330936,-31.25,-48.828125,-31.73828125,-33.69140625,-85.44921875
1767829403387,1767829403.334125,-35.15625,-46.38671875,-24.90234375,-28.80859375,-86.9140625
1767829403387,1767829403.3380313,-41.015625,-49.31640625,-24.90234375,-32.2265625,-110.3515625
1767829403387,1767829403.3419375,-44.43359375,-52.24609375,-31.25,-42.96875,-87.890625
1767829403387,1767829403.3458438,-39.0625,-47.36328125,-32.2265625,-42.96875,-41.50390625
1767829403387,1767829403.34975,-35.15625,-44.43359375,-28.80859375,-45.41015625,-110.3515625
1767829403387,1767829403.3536563,-43.9453125,-45.8984375,-32.2265625,-56.640625,-43.45703125
1767829403387,1767829403.3575625,-38.57421875,-45.41015625,-36.1328125,-53.7109375,166.50390625
1767829403387,1767829403.3614688,-35.64453125,-45.41015625,-34.66796875,-40.52734375,524.4140625
1767829403387,1767829403.365375,-35.64453125,-40.52734375,-33.69140625,-38.0859375,444.3359375
1767829403387,1767829403.3692813,-37.59765625,-38.57421875,-31.25,-50.78125,11.71875
1767829403387,1767829403.3731875,-45.8984375,-40.52734375,-31.25,-57.12890625,-94.23828125
1767829403388,1767829403.3770938,-41.015625,-37.109375,-36.62109375,-59.08203125,-158.69140625
1767829403446,1767829403.395125,-41.9921875,-40.52734375,-41.015625,-57.6171875,-177.734375
1767829403446,1767829403.3990312,-55.17578125,-51.26953125,-37.59765625,-48.828125,-92.7734375
1767829403446,1767829403.4029374,-55.17578125,-56.15234375,-37.109375,-50.29296875,53.22265625
1767829403446,1767829403.4068437,-44.921875,-48.33984375,-36.62109375,-50.78125,51.7578125
1767829403446,1767829403.41075,-44.43359375,-50.29296875,-39.0625,-48.828125,-122.55859375
1767829403446,1767829403.4146562,-46.38671875,-51.26953125,-41.50390625,-55.17578125,-113.28125
1767829403446,1767829403.4185624,-42.48046875,-47.8515625,-40.0390625,-43.9453125,203.125
1767829403446,1767829403.4224687,-34.1796875,-45.8984375,-41.9921875,-39.55078125,230.95703125
1767829403446,1767829403.426375,-37.109375,-39.0625,-42.48046875,-45.41015625,-87.890625
1767829403446,1767829403.4302812,-41.50390625,-43.9453125,-42.48046875,-40.52734375,-146.97265625
1767829403446,1767829403.4341874,-44.43359375,-47.36328125,-43.45703125,-45.8984375,-64.94140625
1767829403446,1767829403.4380937,-37.59765625,-41.015625,-42.96875,-51.7578125,-137.20703125
1767829403491,1767829403.425125,-34.66796875,-43.9453125,-41.50390625,-43.45703125,-354.4921875
1767829403491,1767829403.4290311,-41.015625,-52.734375,-42.96875,-35.15625,-335.9375
1767829403491,1767829403.4329374,-41.9921875,-53.7109375,-46.38671875,-44.43359375,-282.2265625
1767829403491,1767829403.4368436,-42.96875,-50.29296875,-49.8046875,-58.59375,-352.05078125
1767829403491,1767829403.44075,-41.50390625,-49.31640625,-44.43359375,-58.59375,-378.90625
1767829403491,1767829403.4446561,-46.38671875,-51.7578125,-42.48046875,-60.546875,-164.0625
1767829403491,1767829403.4485624,-56.15234375,-51.7578125,-46.875,-65.91796875,66.89453125
1767829403491,1767829403.4524686,-55.17578125,-50.29296875,-43.45703125,-62.98828125,-15.13671875
1767829403491,1767829403.456375,-48.828125,-50.29296875,-46.875,-65.4296875,-115.72265625
1767829403491,1767829403.4602811,-48.33984375,-49.31640625,-47.8515625,-66.40625,26.85546875
1767829403491,1767829403.4641874,-50.29296875,-45.41015625,-43.9453125,-63.96484375,229.98046875
1767829403491,1767829403.4680936,-56.640625,-43.9453125,-52.24609375,-70.80078125,59.5703125
1767829403535,1767829403.471125,-55.6640625,-45.8984375,-59.5703125,-71.2890625,-125.48828125
1767829403535,1767829403.4750311,-50.29296875,-50.78125,-51.7578125,-54.6875,109.375
1767829403535,1767829403.4789374,-53.7109375,-51.7578125,-41.9921875,-49.31640625,252.9296875
1767829403535,1767829403.4828436,-59.08203125,-44.43359375,-39.55078125,-69.82421875,-44.43359375
1767829403535,1767829403.48675,-45.41015625,-37.109375,-36.1328125,-64.94140625,-179.6875
1767829403535,1767829403.4906561,-23.92578125,-38.0859375,-29.296875,-36.62109375,115.72265625
1767829403535,1767829403.4945624,-35.64453125,-44.43359375,-31.25,-49.8046875,93.26171875
1767829403535,1767829403.4984686,-62.5,-45.8984375,-32.2265625,-75.1953125,-121.09375
1767829403535,1767829403.502375,-73.73046875,-55.17578125,-33.203125,-82.03125,-65.4296875
1767829403535,1767829403.5062811,-83.0078125,-57.6171875,-40.0390625,-92.28515625,21.97265625
1767829403535,1767829403.5101874,-90.33203125,-58.10546875,-37.109375,-100.5859375,-13.18359375
1767829403535,1767829403.5140936,-95.703125,-65.91796875,-36.1328125,-109.86328125,-242.1875
1767829403581,1767829403.530125,-110.3515625,-59.5703125,-39.0625,-122.0703125,-172.36328125
1767829403581,1767829403.5340312,-115.234375,-56.640625,-39.0625,-129.39453125,-3.41796875
1767829403581,1767829403.5379374,-124.51171875,-61.03515625,-40.52734375,-144.04296875,-38.57421875
1767829403581,1767829403.5418437,-137.6953125,-65.4296875,-43.45703125,-150.390625,-226.5625
1767829403581,1767829403.54575,-145.99609375,-70.80078125,-39.55078125,-155.76171875,-136.71875
1767829403581,1767829403.5496562,-154.296875,-69.3359375,-34.1796875,-162.59765625,151.85546875
1767829403581,1767829403.5535624,-148.92578125,-59.08203125,-34.66796875,-162.109375,52.24609375
1767829403581,1767829403.5574687,-150.390625,-58.59375,-35.64453125,-163.0859375,-82.51953125
1767829403581,1767829403.561375,-170.8984375,-74.70703125,-43.9453125,-170.41015625,6.34765625
1767829403581,1767829403.5652812,-175.29296875,-73.73046875,-39.55078125,-173.33984375,168.9453125
1767829403581,1767829403.5691874,-159.1796875,-62.5,-45.8984375,-169.43359375,62.98828125
1767829403581,1767829403.5730937,-155.2734375,-55.17578125,-55.17578125,-169.43359375,-57.6171875
1767829403626,1767829403.575125,-161.62109375,-47.36328125,-41.015625,-169.43359375,5.859375
1767829403626,1767829403.5790312,-167.96875,-58.59375,-45.8984375,-166.50390625,-38.57421875
1767829403626,1767829403.5829375,-163.57421875,-66.40625,-58.59375,-155.76171875,-203.125
1767829403626,1767829403.5868437,-158.203125,-60.05859375,-57.12890625,-159.66796875,-344.23828125
1767829403626,1767829403.59075,-149.90234375,-59.5703125,-41.015625,-155.76171875,-28.80859375
1767829403626,1767829403.5946562,-145.01953125,-58.59375,-47.8515625,-140.13671875,320.80078125
1767829403626,1767829403.5985625,-141.11328125,-62.5,-47.36328125,-140.625,91.30859375
1767829403626,1767829403.6024687,-130.859375,-68.84765625,-33.69140625,-134.765625,-104.4921875
1767829403626,1767829403.606375,-129.8828125,-82.03125,-32.2265625,-117.1875,119.62890625
1767829403626,1767829403.6102812,-138.671875,-86.9140625,-36.62109375,-112.79296875,242.67578125
1767829403626,1767829403.6141875,-130.859375,-78.125,-44.921875,-116.2109375,-127.9296875
1767829403626,1767829403.6180937,-106.4453125,-79.58984375,-47.8515625,-104.4921875,-190.91796875
1767829403688,1767829403.635125,-100.09765625,-79.58984375,-47.36328125,-92.28515625,-178.22265625
1767829403688,1767829403.6390312,-104.00390625,-82.51953125,-38.57421875,-91.796875,-259.27734375
1767829403688,1767829403.6429374,-98.14453125,-82.03125,-41.015625,-86.42578125,-326.171875
1767829403688,1767829403.6468437,-90.8203125,-83.49609375,-49.31640625,-76.171875,-282.71484375
1767829403688,1767829403.65075,-83.49609375,-85.9375,-45.8984375,-68.359375,-216.796875
1767829403688,1767829403.6546562,-83.0078125,-85.9375,-47.8515625,-61.5234375,-301.7578125
1767829403688,1767829403.6585624,-85.9375,-83.0078125,-58.59375,-62.5,-152.34375
1767829403688,1767829403.6624687,-70.80078125,-85.9375,-57.12890625,-52.24609375,125.9765625
1767829403688,1767829403.666375,-58.59375,-90.33203125,-54.19921875,-42.48046875,323.2421875
1767829403688,1767829403.6702812,-62.5,-77.1484375,-59.5703125,-45.8984375,116.2109375
1767829403688,1767829403.6741874,-59.08203125,-73.2421875,-55.6640625,-45.8984375,-211.9140625
1767829403688,1767829403.6780937,-45.8984375,-79.58984375,-50.78125,-32.71484375,-164.55078125
1767829403716,1767829403.665125,-38.57421875,-84.9609375,-47.36328125,-23.4375,-154.296875
1767829403716,1767829403.6690311,-36.1328125,-84.9609375,-55.6640625,-21.484375,-136.71875
1767829403716,1767829403.6729374,-30.76171875,-71.77734375,-64.453125,-23.92578125,-86.42578125
1767829403716,1767829403.6768436,-26.85546875,-71.77734375,-61.5234375,-20.99609375,40.0390625
1767829403716,1767829403.68075,-26.85546875,-69.3359375,-51.26953125,-10.7421875,76.171875
1767829403716,1767829403.6846561,-23.4375,-63.96484375,-49.8046875,-11.71875,-117.1875
1767829403716,1767829403.6885624,-22.4609375,-64.94140625,-52.24609375,-13.671875,-130.37109375
1767829403716,1767829403.6924686,-25.87890625,-66.40625,-52.734375,-17.578125,-4.8828125
1767829403716,1767829403.696375,-21.484375,-66.40625,-57.12890625,-21.484375,-65.4296875
1767829403716,1767829403.7002811,-15.625,-63.96484375,-58.10546875,-18.06640625,-174.31640625
1767829403716,1767829403.7041874,-21.97265625,-65.91796875,-54.6875,-22.94921875,-206.54296875
1767829403716,1767829403.7080936,-21.97265625,-77.63671875,-51.7578125,-20.5078125,81.54296875
1767829403764,1767829403.709125,-13.671875,-73.2421875,-46.875,-15.13671875,124.0234375
1767829403764,1767829403.7130313,-18.5546875,-58.10546875,-46.875,-23.92578125,-258.30078125
1767829403764,1767829403.7169375,-22.4609375,-62.98828125,-51.26953125,-23.4375,-225.09765625
1767829403764,1767829403.7208438,-17.578125,-62.5,-46.875,-28.3203125,-109.375
1767829403764,1767829403.72475,-15.13671875,-61.03515625,-51.7578125,-28.80859375,-112.3046875
1767829403764,1767829403.7286563,-9.765625,-62.98828125,-55.17578125,-22.4609375,-109.86328125
1767829403764,1767829403.7325625,-6.34765625,-57.6171875,-50.29296875,-24.4140625,191.40625
1767829403764,1767829403.7364688,-10.7421875,-55.6640625,-43.45703125,-17.08984375,416.50390625
1767829403764,1767829403.740375,-9.765625,-54.19921875,-43.9453125,-20.99609375,68.359375
1767829403764,1767829403.7442813,-4.8828125,-55.17578125,-53.22265625,-32.2265625,-242.1875
1767829403764,1767829403.7481875,-8.30078125,-57.6171875,-57.12890625,-29.296875,-234.375
1767829403764,1767829403.7520938,-17.08984375,-53.7109375,-57.6171875,-27.83203125,-188.4765625
1767829403821,1767829403.756125,-20.01953125,-47.8515625,-56.640625,-29.78515625,-154.78515625
1767829403821,1767829403.7600312,-14.6484375,-46.875,-51.7578125,-26.3671875,-120.60546875
1767829403821,1767829403.7639375,-20.5078125,-50.78125,-49.8046875,-22.94921875,187.5
1767829403821,1767829403.7678437,-37.109375,-49.8046875,-53.7109375,-33.203125,358.88671875
1767829403821,1767829403.77175,-41.015625,-43.45703125,-49.8046875,-39.0625,44.43359375
1767829403821,1767829403.7756562,-33.69140625,-45.41015625,-43.45703125,-33.203125,-18.5546875
1767829403821,1767829403.7795625,-34.66796875,-47.8515625,-45.41015625,-27.83203125,231.4453125
1767829403821,1767829403.7834687,-40.0390625,-45.8984375,-46.875,-29.78515625,214.84375
1767829403821,1767829403.787375,-42.96875,-43.45703125,-42.96875,-34.1796875,-65.4296875
1767829403821,1767829403.7912812,-41.9921875,-44.921875,-45.8984375,-32.71484375,-56.640625
1767829403821,1767829403.7951875,-41.50390625,-44.921875,-46.38671875,-42.96875,-99.12109375
1767829403821,1767829403.7990937,-45.8984375,-44.921875,-48.828125,-56.15234375,-78.61328125
1767829403863,1767829403.801125,-43.45703125,-48.33984375,-48.828125,-52.734375,-54.19921875
1767829403863,1767829403.8050313,-39.0625,-52.24609375,-41.015625,-41.9921875,-166.015625
1767829403863,1767829403.8089375,-43.45703125,-52.24609375,-44.921875,-43.45703125,-138.671875
1767829403863,1767829403.8128438,-46.38671875,-45.41015625,-43.9453125,-46.38671875,-104.00390625
1767829403863,1767829403.81675,-50.29296875,-39.55078125,-40.0390625,-49.31640625,-128.41796875
1767829403863,1767829403.8206563,-49.8046875,-48.33984375,-45.8984375,-48.33984375,8.7890625
1767829403863,1767829403.8245625,-43.9453125,-52.734375,-45.8984375,-35.64453125,305.17578125
1767829403863,1767829403.8284688,-47.36328125,-42.96875,-44.43359375,-36.62109375,90.33203125
1767829403863,1767829403.832375,-53.7109375,-42.48046875,-43.45703125,-47.8515625,-275.87890625
1767829403863,1767829403.8362813,-60.05859375,-52.734375,-42.48046875,-43.45703125,-116.69921875
1767829403863,1767829403.8401875,-53.7109375,-50.29296875,-40.0390625,-33.203125,44.921875
1767829403863,1767829403.8440938,-49.31640625,-39.0625,-39.0625,-41.9921875,-120.1171875
1767829403926,1767829403.860125,-47.8515625,-41.50390625,-40.0390625,-43.9453125,-159.66796875
1767829403926,1767829403.8640313,-48.33984375,-43.45703125,-42.48046875,-42.96875,34.1796875
1767829403926,1767829403.8679376,-41.50390625,-40.52734375,-43.45703125,-40.52734375,-10.7421875
1767829403926,1767829403.8718438,-39.0625,-41.50390625,-40.0390625,-38.57421875,-151.85546875
1767829403926,1767829403.87575,-48.828125,-44.921875,-41.50390625,-50.78125,-180.17578125
1767829403926,1767829403.8796563,-53.7109375,-45.8984375,-47.36328125,-56.640625,206.0546875
1767829403926,1767829403.8835626,-50.29296875,-43.9453125,-48.828125,-62.01171875,430.6640625
1767829403926,1767829403.8874688,-42.48046875,-42.96875,-43.45703125,-69.82421875,4.39453125
1767829403926,1767829403.891375,-33.203125,-41.9921875,-39.55078125,-66.40625,-117.67578125
1767829403926,1767829403.8952813,-35.64453125,-44.921875,-39.55078125,-61.03515625,72.265625
1767829403926,1767829403.8991876,-50.78125,-42.96875,-34.66796875,-55.6640625,-9.27734375
1767829403926,1767829403.9030938,-58.59375,-45.41015625,-31.25,-54.6875,-235.3515625
1767829403957,1767829403.905125,-76.171875,-52.734375,-30.76171875,-60.05859375,-145.01953125
1767829403957,1767829403.9090312,-96.6796875,-50.78125,-27.34375,-60.546875,-16.11328125
1767829403957,1767829403.9129374,-103.515625,-52.734375,-20.01953125,-63.96484375,59.5703125
1767829403957,1767829403.9168437,-104.98046875,-48.828125,-12.6953125,-60.05859375,-103.02734375
1767829403957,1767829403.92075,-113.28125,-46.875,-13.18359375,-72.265625,-177.734375
1767829403957,1767829403.9246562,-114.2578125,-46.38671875,-12.6953125,-90.8203125,-13.671875
1767829403957,1767829403.9285624,-127.9296875,-43.45703125,-11.71875,-109.86328125,-83.984375
1767829403957,1767829403.9324687,-145.99609375,-44.921875,-6.8359375,-134.765625,-112.79296875
1767829403957,1767829403.936375,-177.24609375,-48.828125,-7.8125,-172.36328125,66.89453125
1767829403957,1767829403.9402812,-223.6328125,-35.64453125,-5.37109375,-222.65625,290.0390625
1767829403957,1767829403.9441874,-254.8828125,-20.5078125,4.8828125,-263.18359375,155.76171875
1767829403957,1767829403.9480937,-298.828125,-33.69140625,0.9765625,-310.05859375,-69.3359375
1767829404001,1767829403.950125,-334.47265625,-51.7578125,13.671875,-349.12109375,35.15625
1767829404001,1767829403.9540312,-369.140625,-51.26953125,27.34375,-373.046875,253.41796875
1767829404001,1767829403.9579375,-395.99609375,-44.43359375,22.4609375,-395.99609375,-6.34765625
1767829404001,1767829403.9618437,-397.94921875,-49.8046875,19.53125,-412.109375,-276.3671875
1767829404001,1767829403.96575,-385.7421875,-50.29296875,24.90234375,-403.3203125,-15.625
1767829404001,1767829403.9696562,-391.6015625,-51.26953125,26.85546875,-404.296875,96.6796875
1767829404001,1767829403.9735625,-384.27734375,-46.38671875,32.2265625,-399.4140625,-72.265625
1767829404001,1767829403.9774687,-362.79296875,-38.0859375,32.71484375,-388.18359375,-115.72265625
1767829404001,1767829403.981375,-351.07421875,-42.48046875,23.92578125,-375.0,87.890625
1767829404001,1767829403.9852812,-349.609375,-46.38671875,23.4375,-362.79296875,91.30859375
1767829404001,1767829403.9891875,-338.37890625,-41.015625,21.97265625,-353.02734375,-196.2890625
1767829404001,1767829403.9930937,-324.21875,-46.875,23.92578125,-333.49609375,-122.0703125
1767829404058,1767829403.995125,-312.5,-52.734375,26.85546875,-317.87109375,57.6171875
1767829404058,1767829403.9990313,-291.50390625,-37.109375,21.97265625,-299.31640625,79.1015625
1767829404058,1767829404.0029376,-283.203125,-36.1328125,13.18359375,-291.015625,-65.4296875
1767829404058,1767829404.0068438,-275.390625,-41.015625,5.859375,-285.64453125,-126.46484375
1767829404058,1767829404.01075,-257.32421875,-36.62109375,6.34765625,-269.53125,-46.875
1767829404058,1767829404.0146563,-251.46484375,-41.9921875,3.90625,-262.6953125,0.48828125
1767829404058,1767829404.0185626,-243.65234375,-43.9453125,-6.8359375,-263.18359375,-47.36328125
1767829404058,1767829404.0224688,-233.88671875,-42.96875,-12.20703125,-255.859375,50.78125
1767829404062,1767829404.026375,-225.5859375,-43.45703125,-10.25390625,-246.58203125,243.65234375
1767829404062,1767829404.0302813,-214.84375,-39.0625,-8.7890625,-237.3046875,52.24609375
1767829404062,1767829404.0341876,-206.0546875,-39.0625,-12.20703125,-228.02734375,-85.44921875
1767829404062,1767829404.0380938,-208.0078125,-44.921875,-10.7421875,-218.75,-30.2734375
1767829404094,1767829404.041125,-196.77734375,-43.45703125,-9.27734375,-197.75390625,-67.87109375
1767829404094,1767829404.0450313,-182.12890625,-31.25,-19.04296875,-186.5234375,-90.8203125
1767829404094,1767829404.0489376,-179.19921875,-32.2265625,-20.5078125,-189.453125,-153.80859375
1767829404094,1767829404.0528438,-167.96875,-38.57421875,-22.94921875,-180.6640625,29.78515625
1767829404094,1767829404.05675,-159.1796875,-33.203125,-28.80859375,-170.8984375,204.58984375
1767829404094,1767829404.0606563,-149.4140625,-30.2734375,-26.3671875,-170.8984375,13.18359375
1767829404094,1767829404.0645626,-138.18359375,-30.2734375,-27.34375,-166.50390625,6.8359375
1767829404094,1767829404.0684688,-134.27734375,-39.55078125,-29.296875,-157.2265625,263.18359375
1767829404094,1767829404.072375,-133.30078125,-40.52734375,-23.92578125,-142.08984375,326.171875
1767829404094,1767829404.0762813,-125.9765625,-35.15625,-23.92578125,-139.16015625,-44.43359375
1767829404094,1767829404.0801876,-120.1171875,-41.50390625,-35.15625,-142.578125,-109.375
1767829404094,1767829404.0840938,-122.55859375,-45.8984375,-29.296875,-135.25390625,89.35546875
1767829404137,1767829404.084125,-117.1875,-37.59765625,-26.85546875,-127.9296875,129.39453125
1767829404137,1767829404.0880313,-112.79296875,-28.80859375,-35.64453125,-125.48828125,-82.03125
1767829404137,1767829404.0919375,-104.00390625,-29.296875,-31.73828125,-118.65234375,-95.703125
1767829404137,1767829404.0958438,-87.40234375,-25.390625,-34.1796875,-113.28125,61.5234375
1767829404137,1767829404.09975,-81.0546875,-20.99609375,-40.0390625,-108.3984375,5.859375
1767829404137,1767829404.1036563,-84.47265625,-21.97265625,-40.52734375,-109.375,-92.28515625
1767829404137,1767829404.1075625,-79.58984375,-24.4140625,-39.0625,-102.5390625,-28.80859375
1767829404137,1767829404.1114688,-71.2890625,-29.78515625,-33.203125,-88.37890625,253.41796875
1767829404137,1767829404.115375,-69.82421875,-26.85546875,-31.25,-80.56640625,142.08984375
1767829404137,1767829404.1192813,-78.61328125,-28.3203125,-39.0625,-78.61328125,-152.34375
1767829404137,1767829404.1231875,-84.47265625,-37.109375,-42.48046875,-89.84375,-111.81640625
1767829404137,1767829404.1270938,-75.68359375,-34.1796875,-39.55078125,-91.30859375,-30.76171875
1767829404196,1767829404.130125,-66.89453125,-31.25,-42.96875,-81.54296875,-93.75
1767829404196,1767829404.1340313,-66.89453125,-36.62109375,-45.41015625,-75.1953125,-140.13671875
1767829404196,1767829404.1379375,-61.03515625,-39.0625,-39.55078125,-67.3828125,49.8046875
1767829404196,1767829404.1418438,-54.6875,-30.76171875,-38.0859375,-61.5234375,19.53125
1767829404196,1767829404.14575,-51.26953125,-26.3671875,-41.9921875,-62.5,-139.16015625
1767829404196,1767829404.1496563,-43.45703125,-28.80859375,-51.7578125,-63.4765625,-26.3671875
1767829404196,1767829404.1535625,-44.921875,-32.2265625,-57.12890625,-53.22265625,374.51171875
1767829404196,1767829404.1574688,-49.31640625,-33.69140625,-53.22265625,-46.875,474.609375
1767829404196,1767829404.161375,-40.0390625,-24.4140625,-49.8046875,-48.828125,0.48828125
1767829404196,1767829404.1652813,-35.15625,-21.97265625,-46.38671875,-44.43359375,-121.58203125
1767829404196,1767829404.1691875,-37.109375,-33.203125,-48.33984375,-37.59765625,-20.01953125
1767829404196,1767829404.1730938,-39.55078125,-33.203125,-50.29296875,-40.52734375,-140.625
1767829404242,1767829404.190125,-32.71484375,-32.71484375,-52.734375,-40.52734375,-232.421875
1767829404242,1767829404.1940312,-28.3203125,-40.0390625,-55.6640625,-39.0625,-23.4375
1767829404242,1767829404.1979375,-31.25,-37.109375,-56.15234375,-40.52734375,95.703125
1767829404242,1767829404.2018437,-24.90234375,-34.1796875,-62.01171875,-29.78515625,72.265625
1767829404242,1767829404.20575,-21.484375,-37.59765625,-62.01171875,-27.34375,19.04296875
1767829404242,1767829404.2096562,-24.90234375,-45.8984375,-60.05859375,-29.296875,221.6796875
1767829404242,1767829404.2135625,-34.1796875,-49.31640625,-57.6171875,-29.296875,303.22265625
1767829404242,1767829404.2174687,-41.9921875,-44.921875,-58.59375,-36.62109375,43.9453125
1767829404242,1767829404.221375,-29.78515625,-47.8515625,-62.98828125,-28.80859375,-105.46875
1767829404242,1767829404.2252812,-30.2734375,-48.33984375,-58.59375,-24.90234375,26.85546875
1767829404242,1767829404.2291875,-42.96875,-45.41015625,-52.734375,-29.78515625,247.55859375
1767829404242,1767829404.2330937,-37.109375,-44.43359375,-53.22265625,-30.2734375,22.94921875
1767829404285,1767829404.235125,-32.71484375,-38.57421875,-58.10546875,-34.66796875,-109.375
1767829404285,1767829404.2390313,-37.109375,-37.109375,-57.6171875,-41.015625,6.8359375
1767829404285,1767829404.2429376,-33.203125,-34.1796875,-54.19921875,-41.9921875,44.43359375
1767829404285,1767829404.2468438,-31.25,-32.2265625,-57.12890625,-40.0390625,-134.27734375
1767829404285,1767829404.25075,-26.3671875,-27.34375,-61.5234375,-38.57421875,-275.390625
1767829404285,1767829404.2546563,-18.06640625,-25.87890625,-63.4765625,-30.76171875,-31.73828125
1767829404285,1767829404.2585626,-20.99609375,-25.390625,-62.5,-27.34375,73.73046875
1767829404285,1767829404.2624688,-22.94921875,-21.484375,-59.5703125,-27.83203125,-130.37109375
1767829404285,1767829404.266375,-22.4609375,-22.4609375,-59.5703125,-25.390625,-259.27734375
1767829404285,1767829404.2702813,-14.6484375,-26.3671875,-55.17578125,-15.13671875,60.546875
1767829404285,1767829404.2741876,-5.859375,-30.76171875,-50.78125,-3.90625,339.35546875
1767829404285,1767829404.2780938,-18.5546875,-27.83203125,-54.6875,-14.16015625,24.4140625
1767829404338,1767829404.268125,-28.80859375,-32.2265625,-60.546875,-24.4140625,-75.68359375
1767829404338,1767829404.2720313,-22.4609375,-36.1328125,-63.4765625,-20.99609375,-49.31640625
1767829404338,1767829404.2759376,-14.6484375,-26.85546875,-62.5,-21.97265625,-64.94140625
1767829404338,1767829404.2798438,-15.625,-25.390625,-59.08203125,-23.4375,-174.31640625
1767829404338,1767829404.28375,-37.59765625,-36.62109375,-57.6171875,-25.87890625,-177.24609375
1767829404338,1767829404.2876563,-42.96875,-42.48046875,-54.19921875,-23.4375,-77.1484375
1767829404338,1767829404.2915626,-33.69140625,-40.0390625,-56.15234375,-27.83203125,-72.75390625
1767829404338,1767829404.2954688,-40.52734375,-38.0859375,-61.03515625,-40.52734375,-147.4609375
1767829404338,1767829404.299375,-43.9453125,-40.0390625,-60.05859375,-40.52734375,-95.703125
1767829404338,1767829404.3032813,-37.59765625,-37.59765625,-62.01171875,-36.62109375,74.21875
1767829404338,1767829404.3071876,-27.83203125,-32.2265625,-63.4765625,-37.109375,-101.5625
1767829404338,1767829404.3110938,-23.4375,-36.1328125,-59.08203125,-28.3203125,-212.890625
1767829404376,1767829404.326125,-27.34375,-41.015625,-57.12890625,-23.4375,-154.78515625
1767829404376,1767829404.3300312,-29.78515625,-43.45703125,-54.19921875,-26.3671875,-196.2890625
1767829404376,1767829404.3339374,-27.34375,-39.55078125,-52.24609375,-24.90234375,-251.953125
1767829404376,1767829404.3378437,-27.34375,-32.2265625,-56.640625,-30.2734375,-296.875
1767829404376,1767829404.34175,-25.390625,-36.1328125,-52.24609375,-21.484375,-76.171875
1767829404376,1767829404.3456562,-24.90234375,-45.8984375,-52.24609375,-16.11328125,187.5
1767829404376,1767829404.3495624,-26.3671875,-40.52734375,-51.26953125,-27.34375,-39.55078125
1767829404376,1767829404.3534687,-23.4375,-35.15625,-43.45703125,-26.85546875,-197.75390625
1767829404376,1767829404.357375,-31.73828125,-42.96875,-44.43359375,-29.78515625,-18.06640625
1767829404376,1767829404.3612812,-47.36328125,-43.9453125,-52.734375,-41.50390625,15.13671875
1767829404376,1767829404.3651874,-41.50390625,-37.59765625,-51.7578125,-41.50390625,-269.53125
1767829404376,1767829404.3690937,-32.2265625,-39.55078125,-47.36328125,-36.1328125,-246.58203125
1767829404422,1767829404.369125,-34.1796875,-40.52734375,-51.26953125,-44.921875,-121.58203125
1767829404422,1767829404.3730311,-43.45703125,-35.64453125,-52.24609375,-48.828125,-103.02734375
1767829404422,1767829404.3769374,-40.0390625,-36.62109375,-45.41015625,-43.9453125,-133.7890625
1767829404422,1767829404.3808436,-35.64453125,-41.9921875,-37.59765625,-42.96875,-128.41796875
1767829404422,1767829404.38475,-40.0390625,-45.41015625,-39.55078125,-47.8515625,-73.2421875
1767829404422,1767829404.3886561,-42.96875,-45.41015625,-47.36328125,-53.7109375,-63.4765625
1767829404422,1767829404.3925624,-50.29296875,-47.36328125,-46.38671875,-56.15234375,-74.21875
1767829404422,1767829404.3964686,-45.41015625,-49.8046875,-44.43359375,-47.36328125,48.33984375
1767829404422,1767829404.400375,-39.55078125,-49.31640625,-46.38671875,-35.15625,317.87109375
1767829404422,1767829404.4042811,-49.31640625,-40.0390625,-45.8984375,-43.45703125,179.6875
1767829404422,1767829404.4081874,-62.01171875,-44.43359375,-52.734375,-59.5703125,-61.03515625
1767829404422,1767829404.4120936,-60.546875,-53.22265625,-53.7109375,-57.12890625,-33.203125
1767829404482,1767829404.430125,-55.6640625,-53.7109375,-50.78125,-48.33984375,-109.86328125
1767829404482,1767829404.4340312,-58.10546875,-58.59375,-47.36328125,-52.734375,-107.421875
1767829404482,1767829404.4379375,-61.03515625,-59.5703125,-40.0390625,-60.05859375,-77.63671875
1767829404482,1767829404.4418437,-55.17578125,-58.10546875,-42.96875,-59.08203125,61.5234375
1767829404482,1767829404.44575,-54.19921875,-57.6171875,-49.8046875,-60.05859375,108.3984375
1767829404482,1767829404.4496562,-57.12890625,-56.640625,-44.921875,-59.5703125,-96.6796875
1767829404482,1767829404.4535625,-57.6171875,-59.08203125,-38.0859375,-69.82421875,-138.18359375
1767829404482,1767829404.4574687,-62.5,-61.5234375,-38.57421875,-75.1953125,97.16796875
1767829404482,1767829404.461375,-68.359375,-59.08203125,-36.1328125,-75.68359375,291.9921875
1767829404482,1767829404.4652812,-75.68359375,-54.6875,-36.1328125,-84.9609375,-26.85546875
1767829404482,1767829404.4691875,-77.63671875,-60.546875,-39.0625,-87.890625,-149.4140625
1767829404482,1767829404.4730937,-74.21875,-61.5234375,-37.109375,-85.9375,22.94921875
1767829404510,1767829404.459125,-71.2890625,-55.6640625,-34.66796875,-81.0546875,13.671875
1767829404510,1767829404.4630313,-72.75390625,-58.10546875,-30.2734375,-83.984375,-23.4375
1767829404510,1767829404.4669375,-71.2890625,-59.5703125,-27.34375,-79.58984375,-6.34765625
1767829404510,1767829404.4708438,-78.125,-55.6640625,-23.92578125,-75.1953125,-104.00390625
1767829404510,1767829404.47475,-81.0546875,-50.78125,-27.83203125,-78.61328125,-89.84375
1767829404510,1767829404.4786563,-77.1484375,-51.7578125,-29.78515625,-75.68359375,-92.28515625
1767829404510,1767829404.4825625,-76.171875,-51.7578125,-30.2734375,-74.21875,4.8828125
1767829404510,1767829404.4864688,-80.078125,-47.8515625,-37.109375,-79.58984375,118.1640625
1767829404510,1767829404.490375,-76.171875,-45.41015625,-36.62109375,-75.1953125,38.0859375
1767829404510,1767829404.4942813,-63.96484375,-44.43359375,-29.296875,-66.89453125,26.3671875
1767829404510,1767829404.4981875,-67.3828125,-53.7109375,-30.2734375,-70.80078125,172.8515625
1767829404510,1767829404.5020938,-73.2421875,-60.05859375,-38.57421875,-69.3359375,416.9921875
1767829404568,1767829404.505125,-60.546875,-45.41015625,-34.66796875,-71.77734375,81.54296875
1767829404568,1767829404.5090313,-51.26953125,-45.8984375,-29.78515625,-74.21875,-172.36328125
1767829404568,1767829404.5129375,-63.4765625,-57.6171875,-28.3203125,-62.98828125,122.55859375
1767829404568,1767829404.5168438,-78.125,-53.22265625,-31.25,-53.22265625,63.96484375
1767829404568,1767829404.52075,-87.890625,-51.7578125,-30.2734375,-48.828125,-186.03515625
1767829404568,1767829404.5246563,-87.890625,-60.546875,-26.3671875,-41.015625,-197.75390625
1767829404568,1767829404.5285625,-91.796875,-63.4765625,-32.2265625,-41.50390625,105.46875
1767829404568,1767829404.5324688,-96.19140625,-60.05859375,-36.62109375,-46.38671875,265.13671875
1767829404568,1767829404.536375,-85.9375,-57.6171875,-32.71484375,-55.6640625,-133.7890625
1767829404568,1767829404.5402813,-73.73046875,-62.98828125,-31.73828125,-61.5234375,-231.93359375
1767829404568,1767829404.5441875,-64.453125,-59.08203125,-36.62109375,-58.10546875,-186.03515625
1767829404568,1767829404.5480938,-56.640625,-51.7578125,-41.50390625,-61.5234375,-192.3828125
1767829404605,1767829404.552125,-58.59375,-54.19921875,-41.50390625,-62.98828125,-155.2734375
1767829404605,1767829404.5560312,-61.5234375,-56.15234375,-39.0625,-59.5703125,-125.9765625
1767829404605,1767829404.5599375,-56.15234375,-59.08203125,-40.52734375,-65.4296875,0.0
1767829404605,1767829404.5638437,-47.36328125,-64.453125,-40.52734375,-63.96484375,-46.875
1767829404605,1767829404.56775,-45.41015625,-60.546875,-36.62109375,-60.05859375,-286.1328125
1767829404605,1767829404.5716562,-43.9453125,-53.22265625,-34.66796875,-55.6640625,-151.85546875
1767829404605,1767829404.5755625,-39.0625,-51.7578125,-35.64453125,-44.921875,63.96484375
1767829404605,1767829404.5794687,-41.9921875,-47.36328125,-44.921875,-46.38671875,-84.9609375
1767829404605,1767829404.583375,-52.734375,-49.31640625,-39.0625,-53.7109375,-185.546875
1767829404605,1767829404.5872812,-50.29296875,-55.6640625,-32.71484375,-47.36328125,-60.05859375
1767829404605,1767829404.5911875,-38.0859375,-48.828125,-39.55078125,-46.38671875,70.3125
1767829404605,1767829404.5950937,-39.55078125,-42.96875,-39.55078125,-62.5,-34.66796875
1767829404667,1767829404.610125,-43.45703125,-42.96875,-42.48046875,-61.5234375,-75.68359375
1767829404667,1767829404.6140313,-49.31640625,-52.24609375,-43.45703125,-59.08203125,42.48046875
1767829404667,1767829404.6179376,-50.78125,-61.03515625,-40.0390625,-65.91796875,86.9140625
1767829404667,1767829404.6218438,-39.0625,-58.10546875,-35.64453125,-62.01171875,-0.48828125
1767829404667,1767829404.62575,-42.96875,-55.17578125,-35.15625,-61.5234375,-211.9140625
1767829404667,1767829404.6296563,-56.640625,-62.98828125,-47.8515625,-65.4296875,-42.48046875
1767829404667,1767829404.6335626,-54.6875,-64.94140625,-55.17578125,-62.98828125,508.30078125
1767829404667,1767829404.6374688,-46.875,-51.7578125,-50.78125,-59.5703125,157.2265625
1767829404667,1767829404.641375,-45.41015625,-48.828125,-47.36328125,-56.15234375,-354.98046875
1767829404667,1767829404.6452813,-44.43359375,-52.24609375,-49.8046875,-55.6640625,-240.72265625
1767829404667,1767829404.6491876,-47.8515625,-49.8046875,-50.78125,-58.10546875,-192.87109375
1767829404668,1767829404.6530938,-46.875,-51.26953125,-46.875,-52.734375,-222.16796875
1767829404715,1767829404.656125,-48.33984375,-56.640625,-49.8046875,-49.31640625,-196.2890625
1767829404715,1767829404.6600313,-53.22265625,-53.22265625,-49.31640625,-47.8515625,-208.0078125
1767829404715,1767829404.6639376,-51.7578125,-48.828125,-43.45703125,-52.734375,-195.3125
1767829404715,1767829404.6678438,-45.8984375,-49.31640625,-40.0390625,-53.7109375,-112.79296875
1767829404715,1767829404.67175,-45.41015625,-51.7578125,-40.52734375,-50.29296875,1.953125
1767829404715,1767829404.6756563,-52.734375,-54.6875,-47.8515625,-52.734375,-37.109375
1767829404715,1767829404.6795626,-54.19921875,-53.22265625,-49.8046875,-52.734375,-26.85546875
1767829404715,1767829404.6834688,-48.33984375,-51.26953125,-48.828125,-51.26953125,32.71484375
1767829404715,1767829404.687375,-40.0390625,-52.24609375,-46.875,-48.828125,-0.9765625
1767829404715,1767829404.6912813,-38.0859375,-57.12890625,-49.31640625,-42.48046875,304.6875
1767829404715,1767829404.6951876,-40.0390625,-52.24609375,-53.22265625,-42.48046875,211.9140625
1767829404715,1767829404.6990938,-34.66796875,-48.828125,-53.7109375,-45.8984375,-148.4375
1767829404750,1767829404.700125,-30.2734375,-53.7109375,-51.7578125,-42.48046875,-78.61328125
1767829404750,1767829404.7040312,-22.4609375,-50.29296875,-48.33984375,-33.203125,83.49609375
1767829404750,1767829404.7079375,-22.94921875,-43.9453125,-43.45703125,-29.78515625,151.85546875
1767829404750,1767829404.7118437,-26.3671875,-50.29296875,-43.45703125,-36.1328125,14.16015625
1767829404750,1767829404.71575,-24.90234375,-54.19921875,-46.38671875,-44.921875,-57.12890625
1767829404750,1767829404.7196562,-25.390625,-50.78125,-52.24609375,-47.36328125,-7.8125
1767829404750,1767829404.7235625,-32.2265625,-54.19921875,-56.640625,-47.36328125,-7.8125
1767829404750,1767829404.7274687,-41.9921875,-50.29296875,-55.6640625,-59.08203125,-38.0859375
1767829404750,1767829404.731375,-40.52734375,-47.8515625,-57.6171875,-56.15234375,83.49609375
1767829404750,1767829404.7352812,-32.2265625,-50.78125,-52.734375,-44.921875,372.0703125
1767829404750,1767829404.7391875,-31.25,-44.43359375,-45.41015625,-47.36328125,148.4375
1767829404750,1767829404.7430937,-45.8984375,-46.38671875,-51.7578125,-57.12890625,-186.03515625
1767829404795,1767829404.744125,-48.33984375,-57.12890625,-49.8046875,-49.31640625,-222.16796875
1767829404795,1767829404.7480311,-33.203125,-56.15234375,-47.8515625,-42.48046875,-336.42578125
1767829404795,1767829404.7519374,-32.2265625,-49.31640625,-50.29296875,-46.38671875,-356.4453125
1767829404795,1767829404.7558436,-35.64453125,-52.734375,-42.48046875,-39.55078125,-223.6328125
1767829404795,1767829404.75975,-30.2734375,-48.33984375,-35.15625,-28.80859375,-112.79296875
1767829404795,1767829404.7636561,-28.80859375,-46.875,-44.43359375,-30.2734375,-20.01953125
1767829404795,1767829404.7675624,-31.25,-46.875,-50.29296875,-33.69140625,-41.50390625
1767829404795,1767829404.7714686,-40.0390625,-49.8046875,-53.22265625,-31.73828125,56.640625
1767829404795,1767829404.775375,-39.0625,-54.6875,-53.22265625,-33.69140625,293.45703125
1767829404795,1767829404.7792811,-35.15625,-44.43359375,-48.33984375,-36.1328125,65.91796875
1767829404795,1767829404.7831874,-39.0625,-45.41015625,-46.38671875,-34.66796875,-126.953125
1767829404795,1767829404.7870936,-47.8515625,-54.6875,-47.8515625,-38.0859375,43.9453125
1767829404842,1767829404.790125,-52.24609375,-56.640625,-47.36328125,-40.52734375,7.32421875
1767829404842,1767829404.7940311,-37.59765625,-52.24609375,-41.9921875,-39.0625,-146.484375
1767829404842,1767829404.7979374,-36.1328125,-55.17578125,-38.57421875,-39.0625,-199.21875
1767829404842,1767829404.8018436,-45.8984375,-57.6171875,-37.109375,-41.9921875,16.11328125
1767829404842,1767829404.80575,-48.33984375,-51.26953125,-39.0625,-51.26953125,83.0078125
1767829404842,1767829404.8096561,-46.875,-48.828125,-45.8984375,-56.15234375,-105.95703125
1767829404842,1767829404.8135624,-47.8515625,-53.7109375,-48.828125,-47.8515625,-102.5390625
1767829404842,1767829404.8174686,-48.828125,-61.03515625,-49.31640625,-40.0390625,131.34765625
1767829404843,1767829404.821375,-51.26953125,-61.5234375,-42.96875,-36.62109375,200.1953125
1767829404843,1767829404.8252811,-52.734375,-60.05859375,-43.45703125,-44.921875,-143.5546875
1767829404843,1767829404.8291874,-45.8984375,-57.6171875,-44.43359375,-40.52734375,-166.50390625
1767829404843,1767829404.8330936,-42.48046875,-53.7109375,-42.48046875,-30.76171875,-92.7734375
1767829404888,1767829404.836125,-44.921875,-53.7109375,-45.41015625,-30.2734375,-113.76953125
1767829404888,1767829404.8400311,-42.48046875,-48.828125,-42.96875,-29.296875,-139.6484375
1767829404888,1767829404.8439374,-38.57421875,-51.26953125,-37.109375,-24.90234375,-91.30859375
1767829404888,1767829404.8478436,-41.015625,-56.15234375,-34.66796875,-28.80859375,-3.90625
1767829404888,1767829404.85175,-44.43359375,-47.36328125,-35.15625,-37.109375,-72.265625
1767829404888,1767829404.8556561,-44.921875,-51.26953125,-41.015625,-32.71484375,-74.70703125
1767829404888,1767829404.8595624,-47.8515625,-57.12890625,-47.8515625,-28.80859375,97.65625
1767829404888,1767829404.8634686,-42.48046875,-53.7109375,-43.45703125,-27.34375,320.3125
1767829404888,1767829404.867375,-35.64453125,-44.43359375,-45.41015625,-33.69140625,189.453125
1767829404888,1767829404.8712811,-40.52734375,-46.875,-47.36328125,-41.015625,-24.90234375
1767829404888,1767829404.8751874,-41.9921875,-61.03515625,-51.26953125,-42.48046875,-51.7578125
1767829404888,1767829404.8790936,-35.64453125,-65.4296875,-48.33984375,-42.48046875,-117.1875
1767829404943,1767829404.880125,-28.80859375,-62.5,-46.875,-42.96875,-201.171875
1767829404944,1767829404.8840313,-32.2265625,-61.5234375,-48.33984375,-43.45703125,-272.94921875
1767829404944,1767829404.8879375,-35.64453125,-61.03515625,-42.96875,-35.64453125,-89.35546875
1767829404944,1767829404.8918438,-33.203125,-52.734375,-38.57421875,-32.2265625,103.515625
1767829404944,1767829404.89575,-36.1328125,-49.8046875,-40.52734375,-43.45703125,-65.4296875
1767829404944,1767829404.8996563,-43.45703125,-58.59375,-46.38671875,-46.875,-142.08984375
1767829404944,1767829404.9035625,-48.33984375,-61.03515625,-46.875,-44.43359375,129.39453125
1767829404944,1767829404.9074688,-56.15234375,-62.98828125,-48.33984375,-51.26953125,298.33984375
1767829404944,1767829404.911375,-60.05859375,-60.546875,-47.36328125,-62.5,-118.1640625
1767829404944,1767829404.9152813,-65.4296875,-61.03515625,-44.921875,-67.87109375,-301.26953125
1767829404944,1767829404.9191875,-75.68359375,-61.03515625,-42.48046875,-68.359375,-44.921875
1767829404944,1767829404.9230938,-70.80078125,-53.22265625,-44.43359375,-67.87109375,-12.6953125
1767829404990,1767829404.926125,-63.4765625,-48.828125,-41.50390625,-69.82421875,-215.8203125
1767829404990,1767829404.9300313,-72.265625,-48.828125,-36.62109375,-83.0078125,-84.47265625
1767829404990,1767829404.9339375,-79.1015625,-42.96875,-43.45703125,-88.37890625,144.04296875
1767829404990,1767829404.9378438,-70.80078125,-39.0625,-45.8984375,-83.0078125,71.2890625
1767829404990,1767829404.94175,-72.265625,-44.43359375,-38.57421875,-83.0078125,-26.85546875
1767829404990,1767829404.9456563,-78.125,-46.875,-35.64453125,-78.125,123.53515625
1767829404990,1767829404.9495625,-75.68359375,-41.50390625,-33.203125,-72.75390625,250.48828125
1767829404990,1767829404.9534688,-78.125,-37.59765625,-31.73828125,-80.078125,-80.078125
1767829404990,1767829404.957375,-87.890625,-38.57421875,-39.0625,-92.28515625,-295.8984375
1767829404990,1767829404.9612813,-83.49609375,-42.48046875,-38.57421875,-87.890625,-141.6015625
1767829404990,1767829404.9651875,-84.47265625,-42.96875,-34.66796875,-84.47265625,46.875
1767829404990,1767829404.9690938,-96.19140625,-36.1328125,-35.64453125,-89.84375,-56.15234375
1767829405037,1767829404.985125,-87.40234375,-36.62109375,-34.66796875,-86.9140625,-167.96875
1767829405037,1767829404.9890313,-86.42578125,-41.015625,-37.109375,-90.8203125,-62.5
1767829405037,1767829404.9929376,-92.7734375,-41.9921875,-43.45703125,-93.75,-27.83203125
1767829405037,1767829404.9968438,-95.703125,-41.015625,-47.36328125,-95.703125,-155.76171875
1767829405037,1767829405.00075,-87.890625,-38.57421875,-47.36328125,-91.796875,-200.1953125
1767829405037,1767829405.0046563,-78.125,-40.52734375,-47.8515625,-84.47265625,117.1875
1767829405037,1767829405.0085626,-83.984375,-44.921875,-43.45703125,-81.0546875,348.6328125
1767829405037,1767829405.0124688,-85.9375,-40.52734375,-37.59765625,-80.078125,23.4375
1767829405037,1767829405.016375,-84.47265625,-41.015625,-45.41015625,-86.9140625,-127.9296875
1767829405037,1767829405.0202813,-80.078125,-47.8515625,-49.8046875,-84.9609375,69.82421875
1767829405037,1767829405.0241876,-78.125,-44.43359375,-47.8515625,-80.078125,56.15234375
1767829405037,1767829405.0280938,-80.56640625,-39.55078125,-43.45703125,-83.0078125,-186.5234375
1767829405080,1767829405.030125,-76.66015625,-45.41015625,-48.828125,-86.9140625,-164.55078125
1767829405080,1767829405.0340312,-72.265625,-48.828125,-54.6875,-84.47265625,-117.67578125
1767829405080,1767829405.0379374,-71.77734375,-44.921875,-52.24609375,-74.21875,-172.8515625
1767829405080,1767829405.0418437,-70.3125,-43.45703125,-52.24609375,-76.66015625,-318.84765625
1767829405080,1767829405.04575,-72.265625,-49.8046875,-54.6875,-75.1953125,-281.73828125
1767829405080,1767829405.0496562,-67.3828125,-53.7109375,-58.10546875,-67.87109375,-56.640625
1767829405080,1767829405.0535624,-60.05859375,-47.36328125,-59.5703125,-69.3359375,-39.0625
1767829405080,1767829405.0574687,-54.6875,-48.828125,-53.22265625,-67.3828125,-189.94140625
1767829405080,1767829405.061375,-55.17578125,-57.6171875,-50.78125,-62.5,-161.62109375
1767829405080,1767829405.0652812,-54.6875,-52.734375,-51.26953125,-57.12890625,144.53125
1767829405080,1767829405.0691874,-41.015625,-41.015625,-50.78125,-55.17578125,62.5
1767829405080,1767829405.0730937,-34.66796875,-40.52734375,-53.7109375,-48.33984375,-190.4296875
1767829405142,1767829405.090125,-40.52734375,-42.48046875,-57.12890625,-43.9453125,27.34375
1767829405142,1767829405.0940313,-33.69140625,-42.48046875,-56.15234375,-41.50390625,160.64453125
1767829405142,1767829405.0979376,-21.484375,-42.96875,-50.29296875,-40.0390625,40.52734375
1767829405142,1767829405.1018438,-35.15625,-48.33984375,-51.7578125,-42.48046875,-35.15625
1767829405142,1767829405.10575,-53.22265625,-59.5703125,-57.12890625,-43.9453125,65.91796875
1767829405142,1767829405.1096563,-55.6640625,-63.96484375,-52.24609375,-51.26953125,83.984375
1767829405142,1767829405.1135626,-49.8046875,-55.6640625,-48.828125,-54.19921875,-23.92578125
1767829405142,1767829405.1174688,-54.6875,-52.734375,-52.24609375,-56.15234375,-105.95703125
1767829405142,1767829405.121375,-64.94140625,-61.03515625,-48.828125,-58.10546875,41.015625
1767829405142,1767829405.1252813,-59.08203125,-54.19921875,-40.0390625,-52.734375,169.43359375
1767829405142,1767829405.1291876,-53.7109375,-44.43359375,-43.45703125,-55.17578125,-106.93359375
1767829405142,1767829405.1330938,-54.19921875,-49.31640625,-49.8046875,-56.15234375,-103.515625
1767829405173,1767829405.121125,-52.24609375,-48.33984375,-48.828125,-51.7578125,-43.45703125
1767829405173,1767829405.1250312,-59.5703125,-51.26953125,-49.8046875,-52.24609375,-97.65625
1767829405173,1767829405.1289375,-55.17578125,-59.08203125,-51.26953125,-52.24609375,-133.7890625
1767829405173,1767829405.1328437,-45.8984375,-58.10546875,-49.8046875,-49.31640625,-29.78515625
1767829405173,1767829405.13675,-50.29296875,-58.10546875,-52.24609375,-48.33984375,53.7109375
1767829405173,1767829405.1406562,-45.8984375,-54.19921875,-58.10546875,-57.12890625,-85.9375
1767829405173,1767829405.1445625,-35.15625,-52.734375,-59.08203125,-57.6171875,-137.6953125
1767829405173,1767829405.1484687,-25.87890625,-51.26953125,-53.7109375,-50.78125,28.80859375
1767829405173,1767829405.152375,-18.5546875,-47.8515625,-50.78125,-50.78125,112.3046875
1767829405173,1767829405.1562812,-29.78515625,-45.41015625,-48.33984375,-38.57421875,20.01953125
1767829405173,1767829405.1601875,-46.875,-49.31640625,-43.45703125,-28.3203125,-52.24609375
1767829405173,1767829405.1640937,-52.734375,-58.10546875,-42.96875,-28.3203125,170.41015625
1767829405215,1767829405.165125,-61.03515625,-61.03515625,-43.9453125,-22.94921875,302.734375
1767829405215,1767829405.1690311,-68.84765625,-56.15234375,-43.45703125,-27.83203125,64.94140625
1767829405215,1767829405.1729374,-72.265625,-56.15234375,-43.9453125,-35.64453125,-81.54296875
1767829405215,1767829405.1768436,-67.3828125,-58.10546875,-42.48046875,-40.52734375,54.6875
1767829405215,1767829405.18075,-60.05859375,-55.17578125,-37.59765625,-42.48046875,122.0703125
1767829405215,1767829405.1846561,-55.17578125,-49.31640625,-36.1328125,-41.9921875,-56.640625
1767829405215,1767829405.1885624,-51.7578125,-49.31640625,-40.52734375,-48.33984375,-187.01171875
1767829405215,1767829405.1924686,-49.31640625,-55.6640625,-46.38671875,-47.8515625,51.26953125
1767829405215,1767829405.196375,-48.33984375,-53.7109375,-49.31640625,-39.0625,254.39453125
1767829405215,1767829405.2002811,-38.0859375,-46.875,-46.875,-36.62109375,-49.8046875
1767829405215,1767829405.2041874,-34.66796875,-58.10546875,-43.9453125,-36.62109375,-108.3984375
1767829405215,1767829405.2080936,-37.109375,-61.5234375,-42.96875,-39.55078125,-42.48046875
1767829405279,1767829405.225125,-35.64453125,-53.7109375,-45.8984375,-37.109375,-131.34765625
1767829405279,1767829405.2290313,-34.1796875,-49.31640625,-43.9453125,-30.76171875,-252.44140625
1767829405279,1767829405.2329376,-35.64453125,-56.15234375,-42.48046875,-35.15625,-167.48046875
1767829405279,1767829405.2368438,-39.55078125,-57.12890625,-46.875,-42.96875,-87.890625
1767829405279,1767829405.24075,-36.1328125,-47.36328125,-49.31640625,-41.50390625,-187.5
1767829405279,1767829405.2446563,-34.1796875,-53.22265625,-51.26953125,-49.31640625,-194.82421875
1767829405279,1767829405.2485626,-27.83203125,-58.10546875,-47.36328125,-46.875,23.4375
1767829405279,1767829405.2524688,-27.83203125,-58.10546875,-52.734375,-41.50390625,482.91015625
1767829405279,1767829405.256375,-27.83203125,-51.26953125,-53.22265625,-41.015625,297.8515625
1767829405279,1767829405.2602813,-21.97265625,-46.38671875,-47.36328125,-43.45703125,-188.4765625
1767829405279,1767829405.2641876,-24.4140625,-47.8515625,-46.875,-43.45703125,-135.25390625
1767829405279,1767829405.2680938,-31.73828125,-51.7578125,-38.57421875,-45.41015625,-75.1953125
1767829405319,1767829405.255125,-36.62109375,-52.24609375,-42.48046875,-51.7578125,-149.4140625
1767829405319,1767829405.2590313,-34.66796875,-53.22265625,-53.22265625,-54.19921875,-107.91015625
1767829405319,1767829405.2629375,-33.69140625,-60.05859375,-53.22265625,-55.6640625,190.91796875
1767829405319,1767829405.2668438,-38.57421875,-59.5703125,-50.29296875,-57.12890625,192.87109375
1767829405319,1767829405.27075,-44.43359375,-57.6171875,-46.875,-58.59375,-14.6484375
1767829405319,1767829405.2746563,-34.1796875,-59.08203125,-45.41015625,-43.45703125,84.47265625
1767829405319,1767829405.2785625,-32.2265625,-61.5234375,-47.8515625,-33.69140625,145.99609375
1767829405319,1767829405.2824688,-37.109375,-55.6640625,-47.36328125,-35.64453125,60.546875
1767829405319,1767829405.286375,-35.64453125,-58.10546875,-43.45703125,-32.2265625,-50.29296875
1767829405319,1767829405.2902813,-33.69140625,-59.5703125,-43.45703125,-29.78515625,-168.45703125
1767829405319,1767829405.2941875,-28.80859375,-58.59375,-41.50390625,-22.4609375,125.48828125
1767829405319,1767829405.2980938,-25.87890625,-54.6875,-34.66796875,-22.94921875,274.4140625
1767829405381,1767829405.300125,-26.3671875,-43.45703125,-42.48046875,-32.71484375,-172.36328125
1767829405381,1767829405.3040311,-26.3671875,-48.828125,-53.7109375,-35.64453125,-195.3125
1767829405381,1767829405.3079374,-24.90234375,-51.26953125,-50.29296875,-37.109375,-110.3515625
1767829405381,1767829405.3118436,-23.92578125,-41.9921875,-44.921875,-33.69140625,-245.60546875
1767829405381,1767829405.31575,-28.3203125,-42.48046875,-43.45703125,-37.59765625,-277.34375
1767829405381,1767829405.3196561,-34.66796875,-51.7578125,-41.50390625,-41.9921875,16.6015625
1767829405381,1767829405.3235624,-32.2265625,-51.26953125,-41.015625,-33.69140625,251.953125
1767829405381,1767829405.3274686,-27.34375,-51.26953125,-43.9453125,-34.1796875,5.37109375
1767829405381,1767829405.331375,-32.2265625,-58.10546875,-46.38671875,-41.50390625,-122.55859375
1767829405381,1767829405.3352811,-42.96875,-63.4765625,-45.8984375,-42.96875,55.17578125
1767829405381,1767829405.3391874,-42.96875,-60.546875,-41.015625,-43.45703125,17.08984375
1767829405381,1767829405.3430936,-36.62109375,-50.78125,-33.69140625,-38.57421875,-81.0546875
1767829405411,1767829405.346125,-33.203125,-45.8984375,-38.57421875,-40.0390625,-50.29296875
1767829405411,1767829405.3500311,-33.69140625,-52.24609375,-48.33984375,-46.38671875,144.04296875
1767829405411,1767829405.3539374,-28.80859375,-49.8046875,-43.45703125,-40.0390625,189.453125
1767829405411,1767829405.3578436,-18.5546875,-43.45703125,-40.52734375,-34.66796875,-220.703125
1767829405411,1767829405.36175,-20.5078125,-53.22265625,-43.9453125,-42.48046875,-359.375
1767829405411,1767829405.3656561,-34.66796875,-59.5703125,-46.38671875,-49.8046875,-145.01953125
1767829405411,1767829405.3695624,-34.66796875,-56.640625,-41.015625,-45.41015625,-83.49609375
1767829405413,1767829405.3734686,-30.76171875,-52.734375,-38.57421875,-43.9453125,-237.79296875
1767829405414,1767829405.377375,-34.1796875,-53.22265625,-40.52734375,-41.9921875,-192.87109375
1767829405414,1767829405.3812811,-41.015625,-59.5703125,-40.52734375,-43.9453125,-128.41796875
1767829405414,1767829405.3851874,-42.96875,-57.12890625,-41.50390625,-47.36328125,-100.5859375
1767829405414,1767829405.3890936,-32.71484375,-43.45703125,-42.48046875,-44.921875,-98.6328125
1767829405455,1767829405.405125,-27.34375,-43.9453125,-45.8984375,-45.41015625,-115.72265625
1767829405455,1767829405.4090312,-32.71484375,-50.78125,-43.45703125,-50.29296875,81.54296875
1767829405455,1767829405.4129374,-40.52734375,-50.29296875,-41.50390625,-57.12890625,122.55859375
1767829405455,1767829405.4168437,-30.2734375,-45.8984375,-41.015625,-55.6640625,-57.6171875
1767829405455,1767829405.42075,-31.73828125,-50.29296875,-43.45703125,-53.22265625,-89.35546875
1767829405455,1767829405.4246562,-43.45703125,-58.59375,-48.33984375,-53.7109375,85.44921875
1767829405455,1767829405.4285624,-43.9453125,-57.12890625,-41.9921875,-59.5703125,70.80078125
1767829405455,1767829405.4324687,-46.875,-51.7578125,-42.48046875,-66.89453125,-193.359375
1767829405455,1767829405.436375,-46.38671875,-49.8046875,-48.828125,-56.15234375,-86.42578125
1767829405455,1767829405.4402812,-42.48046875,-46.38671875,-45.41015625,-47.36328125,151.3671875
1767829405455,1767829405.4441874,-46.875,-38.57421875,-42.48046875,-60.05859375,-55.17578125
1767829405455,1767829405.4480937,-52.24609375,-43.9453125,-41.015625,-61.03515625,-123.53515625
1767829405503,1767829405.450125,-44.921875,-44.921875,-43.45703125,-53.22265625,-107.421875
1767829405503,1767829405.4540312,-44.43359375,-43.45703125,-46.38671875,-51.26953125,-134.27734375
1767829405503,1767829405.4579375,-50.29296875,-47.8515625,-38.57421875,-47.36328125,-111.81640625
1767829405503,1767829405.4618437,-51.26953125,-49.31640625,-40.0390625,-47.8515625,-97.65625
1767829405503,1767829405.46575,-49.31640625,-50.78125,-47.8515625,-42.96875,82.03125
1767829405503,1767829405.4696562,-47.8515625,-53.7109375,-50.78125,-43.9453125,101.07421875
1767829405503,1767829405.4735625,-52.734375,-48.828125,-49.8046875,-47.8515625,-74.70703125
1767829405503,1767829405.4774687,-55.17578125,-45.8984375,-50.29296875,-52.734375,-124.51171875
1767829405503,1767829405.481375,-45.8984375,-46.38671875,-49.31640625,-45.41015625,49.31640625
1767829405503,1767829405.4852812,-38.0859375,-41.015625,-45.41015625,-37.109375,227.5390625
1767829405503,1767829405.4891875,-48.33984375,-36.62109375,-47.36328125,-50.78125,-24.90234375
1767829405503,1767829405.4930937,-52.24609375,-39.0625,-50.29296875,-46.875,-142.08984375
1767829405546,1767829405.494125,-43.45703125,-44.921875,-49.8046875,-45.8984375,-226.07421875
1767829405546,1767829405.4980311,-48.33984375,-49.31640625,-50.29296875,-55.6640625,-282.71484375
1767829405546,1767829405.5019374,-54.19921875,-46.38671875,-51.7578125,-59.5703125,-207.03125
1767829405546,1767829405.5058436,-63.96484375,-45.8984375,-55.17578125,-66.40625,-145.99609375
1767829405546,1767829405.50975,-65.4296875,-50.29296875,-52.734375,-67.3828125,-72.265625
1767829405546,1767829405.5136561,-58.59375,-50.78125,-50.78125,-61.03515625,29.296875
1767829405546,1767829405.5175624,-62.98828125,-54.6875,-55.6640625,-63.4765625,52.24609375
1767829405546,1767829405.5214686,-64.94140625,-57.6171875,-56.640625,-62.01171875,-27.83203125
1767829405546,1767829405.525375,-60.05859375,-60.05859375,-51.7578125,-50.78125,310.546875
1767829405546,1767829405.5292811,-52.24609375,-50.29296875,-48.828125,-51.26953125,239.74609375
1767829405546,1767829405.5331874,-46.875,-41.015625,-44.921875,-48.33984375,-165.52734375
1767829405546,1767829405.5370936,-48.828125,-51.7578125,-40.0390625,-38.57421875,-106.4453125
1767829405591,1767829405.540125,-52.734375,-55.6640625,-40.0390625,-43.9453125,-147.94921875
1767829405591,1767829405.5440311,-54.19921875,-56.640625,-44.43359375,-44.43359375,-181.640625
1767829405591,1767829405.5479374,-52.24609375,-54.19921875,-44.43359375,-41.9921875,-157.2265625
1767829405591,1767829405.5518436,-50.78125,-52.24609375,-41.015625,-38.0859375,103.02734375
1767829405591,1767829405.55575,-51.26953125,-47.36328125,-41.9921875,-35.15625,270.01953125
1767829405591,1767829405.5596561,-48.33984375,-42.48046875,-46.38671875,-45.41015625,0.9765625
1767829405591,1767829405.5635624,-44.921875,-41.50390625,-42.96875,-42.96875,-117.1875
1767829405591,1767829405.5674686,-46.875,-45.41015625,-39.55078125,-37.109375,120.60546875
1767829405591,1767829405.571375,-53.22265625,-42.96875,-42.48046875,-41.015625,255.37109375
1767829405591,1767829405.5752811,-52.24609375,-37.59765625,-44.43359375,-50.78125,-77.1484375
1767829405591,1767829405.5791874,-51.7578125,-43.45703125,-47.36328125,-56.15234375,-213.8671875
1767829405591,1767829405.5830936,-48.828125,-41.9921875,-46.38671875,-56.15234375,-127.9296875
1767829405636,1767829405.585125,-50.78125,-38.57421875,-45.8984375,-57.12890625,-89.35546875
1767829405636,1767829405.5890312,-53.22265625,-39.55078125,-44.43359375,-61.03515625,-150.87890625
1767829405636,1767829405.5929375,-55.17578125,-46.875,-47.36328125,-63.4765625,-99.12109375
1767829405636,1767829405.5968437,-60.05859375,-52.24609375,-45.41015625,-59.5703125,1.46484375
1767829405636,1767829405.60075,-59.08203125,-49.31640625,-33.69140625,-55.17578125,13.18359375
1767829405636,1767829405.6046562,-72.75390625,-55.17578125,-34.1796875,-69.3359375,-96.19140625
1767829405636,1767829405.6085625,-78.61328125,-58.59375,-41.9921875,-81.0546875,-45.41015625
1767829405636,1767829405.6124687,-73.2421875,-62.5,-41.015625,-73.2421875,258.30078125
1767829405636,1767829405.616375,-74.70703125,-57.6171875,-35.64453125,-77.63671875,105.46875
1767829405636,1767829405.6202812,-79.1015625,-54.6875,-37.109375,-89.84375,-243.65234375
1767829405636,1767829405.6241875,-83.984375,-61.03515625,-37.109375,-88.8671875,-335.9375
1767829405636,1767829405.6280937,-78.125,-50.29296875,-34.1796875,-83.984375,-264.16015625
1767829405698,1767829405.646125,-74.70703125,-41.015625,-28.80859375,-73.73046875,-196.77734375
1767829405698,1767829405.6500313,-72.75390625,-45.8984375,-28.3203125,-71.77734375,-204.1015625
1767829405698,1767829405.6539376,-67.3828125,-55.6640625,-35.64453125,-78.61328125,-33.203125
1767829405698,1767829405.6578438,-72.75390625,-55.17578125,-34.1796875,-71.2890625,165.52734375
1767829405698,1767829405.66175,-77.1484375,-52.24609375,-29.296875,-73.2421875,-40.52734375
1767829405698,1767829405.6656563,-74.21875,-59.08203125,-20.99609375,-76.171875,-181.15234375
1767829405698,1767829405.6695626,-86.42578125,-63.4765625,-23.4375,-73.2421875,171.38671875
1767829405698,1767829405.6734688,-92.7734375,-58.59375,-30.76171875,-79.58984375,356.93359375
1767829405698,1767829405.677375,-85.44921875,-48.828125,-26.85546875,-89.35546875,-14.6484375
1767829405698,1767829405.6812813,-82.03125,-45.8984375,-28.3203125,-87.890625,-116.2109375
1767829405698,1767829405.6851876,-84.9609375,-49.8046875,-30.2734375,-88.37890625,-28.80859375
1767829405698,1767829405.6890938,-80.078125,-51.26953125,-30.2734375,-89.84375,28.3203125
1767829405740,1767829405.676125,-78.125,-53.7109375,-36.1328125,-84.47265625,45.41015625
1767829405742,1767829405.6800313,-83.984375,-59.5703125,-40.0390625,-83.0078125,83.984375
1767829405742,1767829405.6839375,-87.890625,-61.5234375,-35.64453125,-76.66015625,82.51953125
1767829405742,1767829405.6878438,-80.078125,-56.15234375,-32.71484375,-63.96484375,-35.64453125
1767829405742,1767829405.69175,-70.80078125,-53.7109375,-34.1796875,-69.3359375,-75.68359375
1767829405742,1767829405.6956563,-69.82421875,-56.15234375,-32.71484375,-66.89453125,69.82421875
1767829405742,1767829405.6995625,-68.359375,-60.05859375,-34.66796875,-56.640625,83.984375
1767829405742,1767829405.7034688,-58.59375,-56.640625,-34.66796875,-52.734375,-94.7265625
1767829405742,1767829405.707375,-51.26953125,-51.7578125,-36.62109375,-51.26953125,-131.8359375
1767829405742,1767829405.7112813,-52.24609375,-58.59375,-41.015625,-52.24609375,-5.37109375
1767829405742,1767829405.7151875,-54.6875,-63.4765625,-43.45703125,-46.38671875,330.078125
1767829405742,1767829405.7190938,-49.8046875,-56.640625,-43.45703125,-50.78125,128.41796875
1767829405804,1767829405.750125,-35.15625,-51.7578125,-38.0859375,-47.8515625,-231.93359375
1767829405804,1767829405.7540312,-28.80859375,-49.8046875,-39.0625,-37.59765625,-74.70703125
1767829405804,1767829405.7579374,-31.25,-48.828125,-43.45703125,-40.52734375,23.92578125
1767829405804,1767829405.7618437,-37.109375,-46.875,-41.015625,-45.41015625,-129.8828125
1767829405804,1767829405.76575,-41.50390625,-43.9453125,-38.0859375,-46.875,-245.60546875
1767829405804,1767829405.7696562,-42.96875,-49.8046875,-35.15625,-40.52734375,126.953125
1767829405804,1767829405.7735624,-50.29296875,-55.6640625,-38.0859375,-41.50390625,294.921875
1767829405804,1767829405.7774687,-58.59375,-51.7578125,-46.875,-54.6875,-140.13671875
1767829405804,1767829405.781375,-49.8046875,-48.33984375,-42.48046875,-53.22265625,-296.875
1767829405804,1767829405.7852812,-50.29296875,-61.03515625,-35.64453125,-44.921875,-19.53125
1767829405804,1767829405.7891874,-55.6640625,-60.546875,-39.0625,-45.41015625,106.93359375
1767829405804,1767829405.7930937,-42.96875,-46.875,-40.0390625,-47.36328125,-122.0703125
1767829405832,1767829405.779125,-42.48046875,-49.31640625,-44.921875,-57.12890625,-141.11328125
1767829405832,1767829405.7830312,-35.15625,-48.828125,-46.875,-62.5,-28.3203125
1767829405832,1767829405.7869375,-28.3203125,-49.31640625,-43.45703125,-57.12890625,-10.25390625
1767829405832,1767829405.7908437,-25.390625,-48.33984375,-42.48046875,-48.828125,-117.1875
1767829405832,1767829405.79475,-15.13671875,-49.31640625,-43.45703125,-47.36328125,-121.58203125
1767829405832,1767829405.7986562,-19.04296875,-52.24609375,-44.43359375,-36.1328125,-61.5234375
1767829405832,1767829405.8025625,-30.76171875,-54.6875,-40.0390625,-9.27734375,-98.14453125
1767829405832,1767829405.8064687,-43.9453125,-61.03515625,-35.15625,2.44140625,-89.35546875
1767829405832,1767829405.810375,-54.19921875,-56.640625,-36.1328125,0.9765625,-19.53125
1767829405832,1767829405.8142812,-52.734375,-55.17578125,-44.43359375,-10.25390625,144.04296875
1767829405832,1767829405.8181875,-46.38671875,-56.15234375,-46.875,-17.08984375,29.78515625
1767829405832,1767829405.8220937,-41.9921875,-55.6640625,-44.43359375,-22.4609375,-151.85546875
1767829405875,1767829405.824125,-43.9453125,-57.12890625,-40.52734375,-30.2734375,-33.69140625
1767829405875,1767829405.8280313,-42.48046875,-63.4765625,-38.0859375,-24.4140625,390.625
1767829405875,1767829405.8319376,-32.71484375,-57.6171875,-43.45703125,-27.83203125,393.5546875
1767829405875,1767829405.8358438,-31.25,-56.640625,-49.8046875,-35.64453125,-2.44140625
1767829405875,1767829405.83975,-39.55078125,-66.40625,-49.31640625,-34.66796875,-25.390625
1767829405875,1767829405.8436563,-43.9453125,-63.96484375,-47.8515625,-42.96875,65.4296875
1767829405875,1767829405.8475626,-38.57421875,-63.96484375,-51.26953125,-42.48046875,103.02734375
1767829405875,1767829405.8514688,-35.64453125,-60.05859375,-54.6875,-43.9453125,-5.859375
1767829405875,1767829405.855375,-39.0625,-58.59375,-51.7578125,-42.96875,159.1796875
1767829405875,1767829405.8592813,-48.33984375,-59.5703125,-47.36328125,-41.015625,345.703125
1767829405875,1767829405.8631876,-41.9921875,-55.6640625,-49.31640625,-46.38671875,74.21875
1767829405875,1767829405.8670938,-37.109375,-57.12890625,-48.828125,-45.41015625,28.3203125
1767829405924,1767829405.869125,-41.50390625,-57.12890625,-42.48046875,-44.43359375,48.33984375
1767829405924,1767829405.8730311,-38.57421875,-55.6640625,-41.015625,-44.43359375,-166.9921875
1767829405924,1767829405.8769374,-36.62109375,-55.17578125,-42.96875,-47.36328125,-207.51953125
1767829405924,1767829405.8808436,-33.69140625,-54.19921875,-41.50390625,-42.48046875,-99.12109375
1767829405924,1767829405.88475,-35.15625,-54.19921875,-40.52734375,-35.64453125,-45.41015625
1767829405924,1767829405.8886561,-38.57421875,-55.6640625,-41.015625,-39.0625,-55.6640625
1767829405924,1767829405.8925624,-38.0859375,-54.6875,-49.8046875,-44.43359375,-133.7890625
1767829405924,1767829405.8964686,-34.1796875,-56.640625,-50.78125,-42.96875,-113.28125
1767829405924,1767829405.900375,-27.83203125,-56.15234375,-45.41015625,-33.203125,135.25390625
1767829405924,1767829405.9042811,-28.3203125,-49.8046875,-46.38671875,-40.52734375,106.93359375
1767829405924,1767829405.9081874,-33.69140625,-47.36328125,-43.9453125,-52.734375,-61.5234375
1767829405924,1767829405.9120936,-31.73828125,-50.78125,-43.9453125,-48.828125,-46.38671875
1767829405967,1767829405.916125,-28.3203125,-47.8515625,-48.33984375,-49.31640625,53.7109375
1767829405967,1767829405.9200313,-32.2265625,-47.8515625,-47.36328125,-46.38671875,149.90234375
1767829405967,1767829405.9239376,-45.41015625,-52.734375,-40.0390625,-44.921875,-4.39453125
1767829405967,1767829405.9278438,-47.8515625,-55.17578125,-42.96875,-43.45703125,86.9140625
1767829405967,1767829405.93175,-39.0625,-51.7578125,-46.38671875,-39.0625,259.27734375
1767829405967,1767829405.9356563,-41.015625,-49.31640625,-42.96875,-43.9453125,-6.34765625
1767829405967,1767829405.9395626,-50.29296875,-49.8046875,-44.43359375,-48.828125,-155.76171875
1767829405967,1767829405.9434688,-48.33984375,-52.734375,-43.45703125,-42.96875,27.83203125
1767829405967,1767829405.947375,-46.875,-54.6875,-43.45703125,-38.0859375,114.2578125
1767829405967,1767829405.9512813,-47.36328125,-50.29296875,-46.38671875,-45.41015625,-90.33203125
1767829405967,1767829405.9551876,-39.55078125,-51.7578125,-50.29296875,-50.78125,-127.9296875
1767829405967,1767829405.9590938,-40.52734375,-53.7109375,-54.19921875,-50.78125,-131.34765625
1767829406011,1767829405.960125,-41.9921875,-49.31640625,-48.33984375,-46.38671875,-107.91015625
1767829406011,1767829405.9640312,-36.62109375,-44.43359375,-47.8515625,-43.9453125,-183.10546875
1767829406011,1767829405.9679375,-37.109375,-49.8046875,-42.96875,-41.50390625,-214.84375
1767829406011,1767829405.9718437,-43.45703125,-50.29296875,-40.52734375,-46.38671875,-132.8125
1767829406011,1767829405.97575,-43.45703125,-45.41015625,-48.33984375,-57.12890625,-117.1875
1767829406011,1767829405.9796562,-43.45703125,-49.8046875,-46.875,-58.59375,-65.91796875
1767829406011,1767829405.9835625,-50.78125,-53.22265625,-45.8984375,-54.6875,103.515625
1767829406011,1767829405.9874687,-52.24609375,-55.17578125,-40.0390625,-41.015625,495.1171875
1767829406011,1767829405.991375,-44.921875,-54.19921875,-34.66796875,-40.52734375,394.04296875
1767829406011,1767829405.9952812,-42.96875,-45.41015625,-36.62109375,-47.8515625,-42.96875
1767829406011,1767829405.9991875,-44.921875,-44.921875,-36.1328125,-45.8984375,-43.45703125
1767829406011,1767829406.0030937,-51.7578125,-45.8984375,-41.015625,-55.17578125,21.484375
1767829406071,1767829406.005125,-61.03515625,-39.55078125,-51.7578125,-70.3125,-30.76171875
1767829406071,1767829406.0090313,-57.6171875,-42.48046875,-53.7109375,-79.1015625,-120.1171875
1767829406071,1767829406.0129375,-52.734375,-44.921875,-46.38671875,-66.89453125,38.57421875
1767829406071,1767829406.0168438,-64.94140625,-41.50390625,-39.55078125,-66.40625,139.16015625
1767829406071,1767829406.02075,-81.54296875,-43.45703125,-37.109375,-82.03125,-17.08984375
1767829406071,1767829406.0246563,-82.03125,-47.36328125,-40.0390625,-90.8203125,-45.8984375
1767829406071,1767829406.0285625,-81.54296875,-48.828125,-41.015625,-90.33203125,123.53515625
1767829406071,1767829406.0324688,-85.44921875,-43.9453125,-43.45703125,-95.21484375,268.06640625
1767829406071,1767829406.036375,-82.03125,-35.64453125,-38.57421875,-100.5859375,41.9921875
1767829406071,1767829406.0402813,-82.51953125,-37.109375,-38.0859375,-98.6328125,-113.28125
1767829406071,1767829406.0441875,-90.8203125,-41.50390625,-45.8984375,-102.5390625,-63.96484375
1767829406071,1767829406.0480938,-94.23828125,-41.015625,-46.875,-107.421875,-62.98828125
1767829406117,1767829406.050125,-98.6328125,-38.57421875,-45.41015625,-112.3046875,-148.4375
1767829406117,1767829406.0540311,-99.609375,-37.109375,-47.36328125,-118.65234375,-131.34765625
1767829406117,1767829406.0579374,-95.703125,-40.0390625,-47.36328125,-121.09375,-115.234375
1767829406117,1767829406.0618436,-87.40234375,-39.0625,-43.45703125,-112.3046875,-128.90625
1767829406117,1767829406.06575,-87.890625,-36.62109375,-45.41015625,-104.98046875,-190.91796875
1767829406117,1767829406.0696561,-97.65625,-42.96875,-52.24609375,-108.3984375,-151.85546875
1767829406117,1767829406.0735624,-93.26171875,-45.41015625,-48.828125,-104.4921875,41.9921875
1767829406117,1767829406.0774686,-78.61328125,-41.9921875,-45.8984375,-94.7265625,0.48828125
1767829406117,1767829406.081375,-79.1015625,-37.109375,-52.24609375,-95.703125,-30.76171875
1767829406117,1767829406.0852811,-92.28515625,-38.57421875,-54.19921875,-94.7265625,43.45703125
1767829406117,1767829406.0891874,-90.8203125,-40.0390625,-52.24609375,-88.37890625,184.08203125
1767829406117,1767829406.0930936,-85.44921875,-35.15625,-47.36328125,-91.30859375,-23.4375
1767829406172,1767829406.110125,-85.9375,-32.71484375,-44.921875,-87.890625,-252.44140625
1767829406172,1767829406.1140313,-83.984375,-35.15625,-49.31640625,-77.63671875,107.421875
1767829406172,1767829406.1179376,-71.77734375,-29.78515625,-45.41015625,-73.73046875,223.6328125
1767829406172,1767829406.1218438,-58.59375,-18.06640625,-44.43359375,-71.77734375,-188.4765625
1767829406172,1767829406.12575,-54.6875,-17.578125,-51.26953125,-73.73046875,-279.78515625
1767829406172,1767829406.1296563,-56.640625,-22.4609375,-48.828125,-67.87109375,72.75390625
1767829406172,1767829406.1335626,-57.6171875,-22.4609375,-46.38671875,-62.5,259.27734375
1767829406172,1767829406.1374688,-49.31640625,-18.5546875,-46.875,-67.87109375,4.8828125
1767829406172,1767829406.141375,-45.8984375,-22.94921875,-47.8515625,-66.40625,-182.12890625
1767829406172,1767829406.1452813,-51.7578125,-29.78515625,-47.36328125,-61.03515625,-161.62109375
1767829406172,1767829406.1491876,-46.38671875,-24.4140625,-46.875,-60.546875,-118.65234375
1767829406172,1767829406.1530938,-36.1328125,-20.01953125,-48.828125,-60.546875,-238.76953125
1767829406204,1767829406.143125,-35.64453125,-32.2265625,-51.26953125,-54.19921875,-146.484375
1767829406204,1767829406.1470313,-41.50390625,-36.62109375,-54.19921875,-52.734375,55.17578125
1767829406204,1767829406.1509376,-52.734375,-33.203125,-55.17578125,-63.4765625,20.5078125
1767829406204,1767829406.1548438,-49.31640625,-36.62109375,-52.734375,-61.03515625,-62.5
1767829406204,1767829406.15875,-41.015625,-43.9453125,-54.19921875,-54.6875,-4.39453125
1767829406204,1767829406.1626563,-44.43359375,-45.8984375,-62.01171875,-57.6171875,23.92578125
1767829406204,1767829406.1665626,-48.33984375,-40.52734375,-61.5234375,-57.12890625,-2.9296875
1767829406204,1767829406.1704688,-40.52734375,-40.0390625,-59.5703125,-44.43359375,-82.51953125
1767829406204,1767829406.174375,-29.296875,-50.78125,-57.12890625,-30.2734375,-55.6640625
1767829406204,1767829406.1782813,-31.73828125,-54.19921875,-56.15234375,-29.78515625,143.5546875
1767829406204,1767829406.1821876,-38.0859375,-44.921875,-55.6640625,-41.9921875,16.11328125
1767829406204,1767829406.1860938,-35.64453125,-45.41015625,-54.19921875,-40.0390625,-37.109375
1767829406251,1767829406.200125,-30.2734375,-43.9453125,-52.734375,-26.85546875,31.25
1767829406251,1767829406.2040312,-25.390625,-41.015625,-56.15234375,-26.3671875,-54.6875
1767829406251,1767829406.2079375,-24.4140625,-47.8515625,-55.6640625,-26.3671875,-131.34765625
1767829406251,1767829406.2118437,-27.34375,-47.36328125,-53.22265625,-32.2265625,-109.375
1767829406251,1767829406.21575,-24.4140625,-44.921875,-52.734375,-33.203125,99.12109375
1767829406251,1767829406.2196562,-19.53125,-47.8515625,-51.26953125,-24.4140625,422.8515625
1767829406251,1767829406.2235625,-26.85546875,-51.7578125,-50.78125,-28.80859375,120.60546875
1767829406251,1767829406.2274687,-38.57421875,-57.6171875,-56.640625,-40.0390625,-320.3125
1767829406251,1767829406.231375,-37.109375,-55.6640625,-64.453125,-42.96875,-44.43359375
1767829406251,1767829406.2352812,-40.0390625,-51.26953125,-64.94140625,-48.828125,123.046875
1767829406251,1767829406.2391875,-42.96875,-51.7578125,-58.10546875,-58.10546875,-81.54296875
1767829406251,1767829406.2430937,-42.96875,-58.59375,-53.22265625,-54.6875,-127.44140625
1767829406303,1767829406.244125,-40.52734375,-59.08203125,-56.640625,-48.33984375,-112.79296875
1767829406303,1767829406.2480311,-33.69140625,-56.15234375,-53.7109375,-41.015625,-151.85546875
1767829406303,1767829406.2519374,-35.15625,-57.6171875,-52.734375,-34.66796875,-224.12109375
1767829406303,1767829406.2558436,-36.62109375,-62.01171875,-54.19921875,-30.2734375,-179.6875
1767829406303,1767829406.25975,-31.73828125,-65.91796875,-53.22265625,-31.25,-209.47265625
1767829406303,1767829406.2636561,-26.85546875,-59.5703125,-50.29296875,-29.296875,-245.1171875
1767829406303,1767829406.2675624,-22.4609375,-57.6171875,-45.41015625,-23.4375,-171.38671875
1767829406303,1767829406.2714686,-20.99609375,-64.453125,-49.31640625,-18.06640625,-72.75390625
1767829406303,1767829406.275375,-22.4609375,-65.91796875,-56.640625,-15.625,228.515625
1767829406303,1767829406.2792811,-20.99609375,-61.03515625,-56.15234375,-23.4375,149.90234375
1767829406303,1767829406.2831874,-15.625,-56.640625,-53.22265625,-29.296875,-237.79296875
1767829406303,1767829406.2870936,-20.01953125,-53.22265625,-52.734375,-34.66796875,-177.24609375
1767829406357,1767829406.290125,-30.76171875,-51.26953125,-49.8046875,-41.50390625,-195.3125
1767829406357,1767829406.2940311,-35.15625,-57.12890625,-52.734375,-41.50390625,-257.32421875
1767829406357,1767829406.2979374,-36.62109375,-57.6171875,-58.59375,-46.875,-170.41015625
1767829406357,1767829406.3018436,-38.57421875,-61.03515625,-57.12890625,-48.33984375,21.484375
1767829406357,1767829406.30575,-48.828125,-57.12890625,-57.12890625,-62.5,118.65234375
1767829406357,1767829406.3096561,-53.22265625,-52.734375,-52.24609375,-67.3828125,2.9296875
1767829406357,1767829406.3135624,-46.38671875,-56.15234375,-45.41015625,-57.12890625,-57.6171875
1767829406357,1767829406.3174686,-44.43359375,-60.05859375,-46.875,-56.640625,64.453125
1767829406357,1767829406.321375,-55.17578125,-67.3828125,-43.9453125,-51.26953125,150.87890625
1767829406357,1767829406.3252811,-57.6171875,-66.40625,-41.50390625,-49.8046875,-94.23828125
1767829406357,1767829406.3291874,-45.8984375,-62.01171875,-40.52734375,-46.38671875,-125.0
1767829406357,1767829406.3330936,-44.43359375,-59.5703125,-43.45703125,-39.0625,9.27734375
1767829406385,1767829406.335125,-51.7578125,-62.01171875,-48.33984375,-42.48046875,-40.0390625
1767829406385,1767829406.3390312,-51.7578125,-63.96484375,-47.8515625,-48.828125,-228.515625
1767829406385,1767829406.3429375,-43.9453125,-63.96484375,-41.015625,-38.0859375,-198.2421875
1767829406385,1767829406.3468437,-37.109375,-64.94140625,-40.0390625,-32.71484375,-121.58203125
1767829406385,1767829406.35075,-34.1796875,-61.5234375,-49.31640625,-29.78515625,-247.55859375
1767829406385,1767829406.3546562,-30.2734375,-57.12890625,-49.8046875,-25.87890625,-292.96875
1767829406385,1767829406.3585625,-29.296875,-60.546875,-46.875,-28.80859375,-90.33203125
1767829406385,1767829406.3624687,-28.80859375,-60.546875,-49.8046875,-22.4609375,166.50390625
1767829406385,1767829406.366375,-31.73828125,-57.12890625,-46.875,-17.578125,105.95703125
1767829406385,1767829406.3702812,-36.62109375,-53.7109375,-41.9921875,-23.92578125,-189.94140625
1767829406385,1767829406.3741875,-36.1328125,-56.640625,-46.875,-32.2265625,-103.515625
1767829406385,1767829406.3780937,-36.62109375,-64.453125,-44.43359375,-38.0859375,134.765625
1767829406444,1767829406.380125,-44.921875,-57.6171875,-35.15625,-45.8984375,3.90625
1767829406444,1767829406.3840313,-55.17578125,-58.59375,-42.48046875,-57.6171875,-23.4375
1767829406444,1767829406.3879375,-57.6171875,-63.96484375,-49.31640625,-62.5,187.5
1767829406444,1767829406.3918438,-62.01171875,-65.91796875,-46.38671875,-61.5234375,111.328125
1767829406444,1767829406.39575,-73.2421875,-61.5234375,-40.52734375,-67.3828125,-262.6953125
1767829406444,1767829406.3996563,-67.3828125,-55.6640625,-40.0390625,-76.171875,-136.23046875
1767829406444,1767829406.4035625,-61.5234375,-62.98828125,-46.875,-76.171875,241.69921875
1767829406444,1767829406.4074688,-57.12890625,-63.4765625,-48.33984375,-67.87109375,277.83203125
1767829406444,1767829406.411375,-46.875,-52.24609375,-43.9453125,-64.94140625,-52.734375
1767829406444,1767829406.4152813,-33.203125,-49.8046875,-37.109375,-62.01171875,-119.140625
1767829406444,1767829406.4191875,-35.15625,-53.22265625,-38.0859375,-60.05859375,-135.25390625
1767829406444,1767829406.4230938,-39.55078125,-54.19921875,-42.48046875,-62.98828125,-126.46484375
1767829406490,1767829406.427125,-29.296875,-46.875,-36.62109375,-58.10546875,-86.42578125
1767829406490,1767829406.4310312,-22.94921875,-47.8515625,-35.15625,-45.8984375,-43.45703125
1767829406490,1767829406.4349375,-30.2734375,-52.24609375,-41.50390625,-36.1328125,-8.30078125
1767829406490,1767829406.4388437,-44.43359375,-51.26953125,-41.50390625,-30.2734375,-165.0390625
1767829406490,1767829406.44275,-52.24609375,-52.24609375,-39.0625,-22.94921875,-201.171875
1767829406490,1767829406.4466562,-58.59375,-59.08203125,-40.0390625,-16.11328125,68.359375
1767829406490,1767829406.4505625,-65.91796875,-61.03515625,-41.50390625,-14.6484375,480.95703125
1767829406490,1767829406.4544687,-61.03515625,-46.875,-46.38671875,-17.578125,219.7265625
1767829406490,1767829406.458375,-43.9453125,-41.50390625,-45.41015625,-21.97265625,-143.06640625
1767829406490,1767829406.4622812,-35.64453125,-42.96875,-41.50390625,-22.94921875,31.25
1767829406490,1767829406.4661875,-40.52734375,-48.33984375,-41.50390625,-26.85546875,50.29296875
1767829406490,1767829406.4700937,-45.41015625,-49.31640625,-42.48046875,-40.0390625,-17.08984375
1767829406535,1767829406.485125,-38.0859375,-48.33984375,-37.59765625,-45.41015625,-44.921875
1767829406535,1767829406.4890313,-41.50390625,-50.78125,-36.1328125,-43.45703125,3.41796875
1767829406535,1767829406.4929376,-51.7578125,-44.921875,-40.52734375,-46.38671875,70.3125
1767829406535,1767829406.4968438,-56.15234375,-42.96875,-41.50390625,-54.19921875,-64.453125
1767829406535,1767829406.50075,-58.10546875,-44.43359375,-42.48046875,-68.359375,-173.33984375
1767829406535,1767829406.5046563,-56.640625,-47.8515625,-42.96875,-67.87109375,-36.1328125
1767829406535,1767829406.5085626,-54.19921875,-44.921875,-43.9453125,-59.08203125,396.97265625
1767829406535,1767829406.5124688,-61.03515625,-40.52734375,-41.50390625,-68.84765625,144.04296875
1767829406535,1767829406.516375,-61.5234375,-43.9453125,-33.69140625,-71.77734375,-279.78515625
1767829406535,1767829406.5202813,-53.7109375,-47.8515625,-38.57421875,-65.91796875,-133.7890625
1767829406535,1767829406.5241876,-55.6640625,-40.52734375,-43.9453125,-68.84765625,-37.59765625
1767829406535,1767829406.5280938,-59.5703125,-37.109375,-41.50390625,-71.2890625,-178.22265625
1767829406583,1767829406.529125,-53.7109375,-43.45703125,-40.0390625,-60.546875,-139.6484375
1767829406583,1767829406.5330312,-50.29296875,-49.31640625,-46.875,-61.5234375,-18.06640625
1767829406583,1767829406.5369375,-48.33984375,-46.875,-48.33984375,-61.5234375,-66.40625
1767829406583,1767829406.5408437,-45.8984375,-49.31640625,-42.48046875,-48.828125,-115.72265625
1767829406583,1767829406.54475,-42.96875,-56.15234375,-41.50390625,-46.875,-107.91015625
1767829406583,1767829406.5486562,-40.52734375,-57.6171875,-40.52734375,-41.50390625,-87.40234375
1767829406583,1767829406.5525625,-40.52734375,-55.17578125,-44.43359375,-35.64453125,-12.20703125
1767829406583,1767829406.5564687,-40.0390625,-47.8515625,-43.9453125,-45.41015625,-59.5703125
1767829406583,1767829406.560375,-41.9921875,-46.875,-45.8984375,-48.33984375,-23.4375
1767829406583,1767829406.5642812,-39.0625,-51.7578125,-50.78125,-41.50390625,343.75
1767829406583,1767829406.5681875,-36.62109375,-45.41015625,-51.7578125,-48.828125,291.015625
1767829406583,1767829406.5720937,-41.50390625,-41.9921875,-47.8515625,-57.12890625,-83.984375
1767829406626,1767829406.575125,-47.36328125,-46.38671875,-47.36328125,-59.5703125,-100.09765625
1767829406626,1767829406.5790312,-47.36328125,-46.38671875,-41.50390625,-61.03515625,2.44140625
1767829406626,1767829406.5829375,-43.45703125,-50.29296875,-42.48046875,-64.453125,8.30078125
1767829406626,1767829406.5868437,-41.015625,-45.8984375,-48.33984375,-65.91796875,-105.95703125
1767829406626,1767829406.59075,-45.41015625,-50.29296875,-43.45703125,-51.26953125,61.03515625
1767829406626,1767829406.5946562,-53.7109375,-63.4765625,-41.9921875,-51.7578125,216.796875
1767829406626,1767829406.5985625,-48.828125,-56.640625,-46.875,-58.10546875,-65.4296875
1767829406626,1767829406.6024687,-42.48046875,-49.31640625,-43.9453125,-51.26953125,-242.67578125
1767829406626,1767829406.606375,-47.36328125,-54.6875,-38.0859375,-48.33984375,60.546875
1767829406626,1767829406.6102812,-58.59375,-59.08203125,-40.0390625,-51.26953125,279.296875
1767829406626,1767829406.6141875,-58.59375,-56.15234375,-46.875,-56.640625,-92.7734375
1767829406626,1767829406.6180937,-47.36328125,-57.6171875,-47.8515625,-53.22265625,-252.44140625
1767829406671,1767829406.619125,-43.9453125,-52.24609375,-39.0625,-49.8046875,-161.1328125
1767829406671,1767829406.6230311,-43.45703125,-43.9453125,-37.59765625,-47.8515625,-185.05859375
1767829406671,1767829406.6269374,-36.62109375,-43.9453125,-41.015625,-43.45703125,-200.68359375
1767829406671,1767829406.6308436,-35.64453125,-46.38671875,-41.50390625,-38.57421875,-141.6015625
1767829406671,1767829406.63475,-36.62109375,-48.33984375,-41.015625,-35.15625,-150.390625
1767829406671,1767829406.6386561,-41.015625,-44.43359375,-36.1328125,-38.57421875,-109.375
1767829406671,1767829406.6425624,-43.45703125,-41.9921875,-37.109375,-44.921875,-71.2890625
1767829406671,1767829406.6464686,-34.66796875,-40.0390625,-39.55078125,-41.50390625,-19.53125
1767829406671,1767829406.650375,-35.64453125,-39.55078125,-38.57421875,-36.62109375,162.59765625
1767829406671,1767829406.6542811,-48.828125,-37.59765625,-40.0390625,-43.45703125,83.49609375
1767829406671,1767829406.6581874,-47.36328125,-37.59765625,-36.1328125,-49.31640625,-133.30078125
1767829406671,1767829406.6620936,-44.43359375,-42.48046875,-28.3203125,-48.33984375,-134.765625
1767829406718,1767829406.666125,-52.734375,-48.828125,-33.203125,-54.19921875,-204.58984375
1767829406718,1767829406.6700313,-53.7109375,-47.8515625,-40.0390625,-53.22265625,-138.18359375
1767829406718,1767829406.6739376,-54.19921875,-44.921875,-38.57421875,-50.29296875,-71.77734375
1767829406718,1767829406.6778438,-46.875,-48.33984375,-39.55078125,-46.38671875,64.453125
1767829406718,1767829406.68175,-46.875,-46.38671875,-39.55078125,-42.96875,207.51953125
1767829406718,1767829406.6856563,-54.6875,-44.921875,-42.48046875,-53.22265625,115.72265625
1767829406718,1767829406.6895626,-64.453125,-49.8046875,-45.41015625,-61.5234375,80.078125
1767829406718,1767829406.6934688,-66.40625,-53.22265625,-42.96875,-56.640625,224.609375
1767829406718,1767829406.697375,-60.05859375,-50.29296875,-36.62109375,-53.7109375,327.63671875
1767829406718,1767829406.7012813,-57.6171875,-51.26953125,-39.0625,-69.3359375,-7.32421875
1767829406718,1767829406.7051876,-62.5,-54.19921875,-45.8984375,-74.70703125,-142.08984375
1767829406718,1767829406.7090938,-66.40625,-56.640625,-42.96875,-68.84765625,-60.546875
1767829406775,1767829406.725125,-65.4296875,-58.59375,-39.0625,-66.89453125,-106.4453125
1767829406775,1767829406.7290313,-67.3828125,-57.6171875,-41.50390625,-64.453125,-124.0234375
1767829406775,1767829406.7329376,-69.82421875,-56.640625,-37.59765625,-63.96484375,-22.4609375
1767829406776,1767829406.7368438,-69.82421875,-52.734375,-32.2265625,-63.4765625,-61.03515625
1767829406776,1767829406.74075,-68.84765625,-48.33984375,-35.64453125,-65.91796875,-80.078125
1767829406776,1767829406.7446563,-61.5234375,-52.24609375,-41.50390625,-69.3359375,-38.0859375
1767829406776,1767829406.7485626,-65.91796875,-52.24609375,-42.96875,-76.171875,-74.21875
1767829406776,1767829406.7524688,-78.61328125,-53.22265625,-42.48046875,-75.68359375,227.5390625
1767829406776,1767829406.756375,-78.61328125,-49.8046875,-42.96875,-77.1484375,161.62109375
1767829406776,1767829406.7602813,-82.51953125,-44.43359375,-42.48046875,-88.37890625,-137.20703125
1767829406776,1767829406.7641876,-86.42578125,-48.33984375,-37.59765625,-89.35546875,-48.33984375
1767829406776,1767829406.7680938,-96.6796875,-51.26953125,-36.62109375,-86.9140625,-97.16796875
1767829406817,1767829406.755125,-100.5859375,-52.24609375,-41.50390625,-86.42578125,-166.50390625
1767829406817,1767829406.7590313,-88.8671875,-48.33984375,-41.015625,-86.9140625,-105.95703125
1767829406817,1767829406.7629375,-89.35546875,-48.828125,-39.55078125,-81.54296875,87.890625
1767829406817,1767829406.7668438,-90.8203125,-49.8046875,-39.0625,-78.125,106.93359375
1767829406817,1767829406.77075,-87.40234375,-46.875,-42.96875,-89.35546875,-137.20703125
1767829406817,1767829406.7746563,-80.078125,-47.36328125,-41.9921875,-87.40234375,-16.6015625
1767829406817,1767829406.7785625,-76.171875,-48.33984375,-39.55078125,-79.1015625,180.6640625
1767829406817,1767829406.7824688,-77.63671875,-43.9453125,-42.96875,-76.171875,49.8046875
1767829406817,1767829406.786375,-79.1015625,-40.52734375,-39.0625,-76.66015625,-198.2421875
1767829406817,1767829406.7902813,-75.68359375,-43.45703125,-31.25,-78.61328125,-295.8984375
1767829406817,1767829406.7941875,-76.66015625,-50.78125,-42.48046875,-81.0546875,18.06640625
1767829406817,1767829406.7980938,-79.1015625,-45.8984375,-46.875,-84.9609375,251.953125
1767829406865,1767829406.801125,-79.58984375,-38.57421875,-41.50390625,-91.796875,-34.66796875
1767829406865,1767829406.8050313,-85.44921875,-46.875,-40.52734375,-97.16796875,-134.765625
1767829406865,1767829406.8089375,-90.33203125,-53.7109375,-41.50390625,-102.05078125,-96.6796875
1767829406865,1767829406.8128438,-90.33203125,-48.33984375,-45.8984375,-102.05078125,-83.49609375
1767829406865,1767829406.81675,-95.21484375,-43.9453125,-45.41015625,-100.09765625,-63.4765625
1767829406865,1767829406.8206563,-90.33203125,-44.921875,-48.33984375,-98.6328125,-28.80859375
1767829406865,1767829406.8245625,-75.1953125,-39.0625,-45.41015625,-89.35546875,164.0625
1767829406865,1767829406.8284688,-78.61328125,-44.921875,-40.52734375,-86.42578125,143.06640625
1767829406865,1767829406.832375,-81.0546875,-49.31640625,-42.48046875,-89.84375,-77.1484375
1767829406865,1767829406.8362813,-76.171875,-49.8046875,-41.015625,-85.9375,-55.6640625
1767829406865,1767829406.8401875,-64.453125,-49.31640625,-38.0859375,-75.1953125,20.01953125
1767829406865,1767829406.8440938,-55.6640625,-42.96875,-41.015625,-76.66015625,-38.57421875
1767829406910,1767829406.845125,-59.5703125,-44.921875,-44.921875,-77.63671875,-106.4453125
1767829406910,1767829406.8490312,-65.91796875,-50.29296875,-44.43359375,-75.68359375,-12.20703125
1767829406910,1767829406.8529375,-58.10546875,-42.96875,-42.48046875,-75.1953125,88.8671875
1767829406910,1767829406.8568437,-51.7578125,-42.48046875,-42.96875,-77.1484375,-152.34375
1767829406910,1767829406.86075,-55.17578125,-48.33984375,-54.19921875,-82.03125,-297.8515625
1767829406910,1767829406.8646562,-65.4296875,-48.33984375,-57.6171875,-79.1015625,49.31640625
1767829406910,1767829406.8685625,-71.2890625,-44.921875,-50.78125,-76.66015625,196.77734375
1767829406910,1767829406.8724687,-67.87109375,-41.015625,-50.29296875,-87.40234375,-164.55078125
1767829406910,1767829406.876375,-66.89453125,-41.50390625,-50.78125,-87.40234375,-259.765625
1767829406910,1767829406.8802812,-73.2421875,-44.921875,-47.8515625,-84.9609375,-97.65625
1767829406910,1767829406.8841875,-73.73046875,-44.921875,-49.31640625,-86.42578125,-85.9375
1767829406910,1767829406.8880937,-71.77734375,-38.57421875,-47.8515625,-82.03125,-216.30859375
1767829406954,1767829406.894125,-70.80078125,-43.45703125,-44.921875,-83.984375,-250.48828125
1767829406954,1767829406.8980312,-69.82421875,-47.36328125,-47.36328125,-89.35546875,-116.69921875
1767829406954,1767829406.9019375,-70.80078125,-44.43359375,-47.8515625,-88.8671875,-54.6875
1767829406954,1767829406.9058437,-62.98828125,-49.31640625,-45.41015625,-83.49609375,-96.19140625
1767829406954,1767829406.90975,-63.4765625,-51.7578125,-44.43359375,-77.63671875,-17.578125
1767829406954,1767829406.9136562,-64.94140625,-48.828125,-42.48046875,-68.359375,87.40234375
1767829406954,1767829406.9175625,-57.12890625,-48.828125,-41.015625,-61.03515625,71.2890625
1767829406954,1767829406.9214687,-49.8046875,-50.29296875,-38.57421875,-57.6171875,-60.546875
1767829406954,1767829406.925375,-44.921875,-47.8515625,-40.0390625,-62.01171875,5.37109375
1767829406954,1767829406.9292812,-40.0390625,-43.45703125,-48.33984375,-63.4765625,144.04296875
1767829406954,1767829406.9331875,-36.62109375,-42.48046875,-50.29296875,-61.03515625,-63.96484375
1767829406954,1767829406.9370937,-31.73828125,-46.38671875,-48.33984375,-50.78125,-202.1484375
1767829407016,1767829406.950125,-29.78515625,-48.828125,-50.29296875,-43.45703125,-150.390625
1767829407016,1767829406.9540312,-31.25,-43.9453125,-54.19921875,-46.38671875,-80.078125
1767829407016,1767829406.9579375,-34.1796875,-43.45703125,-55.6640625,-53.7109375,78.61328125
1767829407016,1767829406.9618437,-35.64453125,-43.45703125,-52.24609375,-60.546875,-21.484375
1767829407016,1767829406.96575,-34.1796875,-47.36328125,-51.26953125,-54.6875,-13.18359375
1767829407016,1767829406.9696562,-47.36328125,-57.12890625,-56.640625,-53.22265625,344.7265625
1767829407016,1767829406.9735625,-62.01171875,-56.15234375,-57.12890625,-71.2890625,120.60546875
1767829407016,1767829406.9774687,-62.98828125,-54.19921875,-55.17578125,-77.1484375,-188.96484375
1767829407016,1767829406.981375,-61.5234375,-55.6640625,-54.19921875,-67.3828125,66.40625
1767829407016,1767829406.9852812,-64.453125,-50.78125,-50.78125,-71.2890625,203.61328125
1767829407016,1767829406.9891875,-65.4296875,-44.43359375,-50.29296875,-80.56640625,-80.078125
1767829407016,1767829406.9930937,-71.2890625,-49.31640625,-57.12890625,-88.37890625,-145.5078125
1767829407046,1767829406.994125,-79.1015625,-51.26953125,-57.12890625,-92.28515625,-73.2421875
1767829407046,1767829406.9980311,-81.54296875,-50.78125,-50.29296875,-90.8203125,-53.7109375
1767829407046,1767829407.0019374,-76.66015625,-51.7578125,-45.8984375,-82.51953125,-82.51953125
1767829407046,1767829407.0058436,-74.70703125,-56.640625,-50.29296875,-75.1953125,-97.16796875
1767829407046,1767829407.00975,-73.2421875,-55.17578125,-53.22265625,-75.1953125,-64.94140625
1767829407046,1767829407.0136561,-66.40625,-48.828125,-51.7578125,-72.265625,-3.41796875
1767829407046,1767829407.0175624,-62.5,-47.8515625,-48.33984375,-63.4765625,4.8828125
1767829407046,1767829407.0214686,-59.08203125,-48.33984375,-46.875,-49.31640625,-49.8046875
1767829407046,1767829407.025375,-57.6171875,-55.6640625,-54.19921875,-35.64453125,204.1015625
1767829407046,1767829407.0292811,-46.38671875,-48.828125,-55.6640625,-32.2265625,91.796875
1767829407047,1767829407.0331874,-35.15625,-41.015625,-51.7578125,-37.109375,-193.359375
1767829407047,1767829407.0370936,-40.0390625,-46.38671875,-55.17578125,-38.57421875,-101.07421875
1767829407090,1767829407.040125,-45.41015625,-47.8515625,-55.17578125,-38.0859375,-69.82421875
1767829407090,1767829407.0440311,-34.66796875,-43.45703125,-49.31640625,-38.57421875,-67.3828125
1767829407090,1767829407.0479374,-32.71484375,-45.41015625,-46.875,-35.15625,-141.11328125
1767829407090,1767829407.0518436,-38.57421875,-51.26953125,-49.8046875,-32.71484375,-42.48046875
1767829407090,1767829407.05575,-45.41015625,-47.36328125,-53.7109375,-39.0625,24.90234375
1767829407090,1767829407.0596561,-46.38671875,-45.8984375,-52.24609375,-51.26953125,-154.78515625
1767829407090,1767829407.0635624,-43.9453125,-51.26953125,-48.828125,-55.17578125,-171.38671875
1767829407090,1767829407.0674686,-41.015625,-47.36328125,-49.8046875,-51.7578125,48.828125
1767829407090,1767829407.071375,-40.52734375,-41.015625,-48.828125,-50.78125,321.77734375
1767829407090,1767829407.0752811,-44.43359375,-36.1328125,-46.875,-61.03515625,13.671875
1767829407090,1767829407.0791874,-39.0625,-35.15625,-45.41015625,-67.87109375,-95.21484375
1767829407090,1767829407.0830936,-36.62109375,-35.15625,-49.8046875,-83.0078125,-2.9296875
1767829407137,1767829407.085125,-47.36328125,-40.0390625,-55.6640625,-85.9375,-47.8515625
1767829407137,1767829407.0890312,-61.5234375,-47.36328125,-53.7109375,-72.265625,-135.7421875
1767829407137,1767829407.0929375,-74.21875,-48.33984375,-49.31640625,-63.4765625,-192.3828125
1767829407137,1767829407.0968437,-86.42578125,-51.7578125,-47.36328125,-54.19921875,-87.890625
1767829407137,1767829407.10075,-91.796875,-53.7109375,-44.43359375,-49.8046875,-2.9296875
1767829407137,1767829407.1046562,-86.9140625,-53.7109375,-46.38671875,-52.24609375,-77.1484375
1767829407137,1767829407.1085625,-78.61328125,-54.6875,-48.33984375,-49.8046875,-23.4375
1767829407137,1767829407.1124687,-63.96484375,-52.24609375,-43.9453125,-40.52734375,257.32421875
1767829407137,1767829407.116375,-49.31640625,-47.8515625,-40.0390625,-40.0390625,177.734375
1767829407137,1767829407.1202812,-44.921875,-51.7578125,-39.0625,-42.48046875,-41.9921875
1767829407137,1767829407.1241875,-37.59765625,-58.10546875,-42.48046875,-43.45703125,65.4296875
1767829407137,1767829407.1280937,-30.76171875,-57.6171875,-41.50390625,-37.109375,105.95703125
1767829407195,1767829407.129125,-34.1796875,-49.8046875,-40.0390625,-40.0390625,-56.15234375
1767829407195,1767829407.1330314,-37.109375,-48.33984375,-36.1328125,-42.96875,-115.72265625
1767829407195,1767829407.1369376,-40.0390625,-51.26953125,-36.62109375,-30.2734375,82.03125
1767829407195,1767829407.1408439,-35.64453125,-51.7578125,-34.66796875,-18.5546875,254.39453125
1767829407195,1767829407.14475,-26.85546875,-45.8984375,-29.296875,-24.90234375,39.0625
1767829407195,1767829407.1486564,-32.71484375,-45.41015625,-32.71484375,-37.109375,-97.65625
1767829407195,1767829407.1525626,-34.66796875,-51.26953125,-31.25,-36.1328125,166.015625
1767829407195,1767829407.1564689,-30.2734375,-51.26953125,-29.296875,-34.66796875,214.84375
1767829407195,1767829407.160375,-34.66796875,-41.9921875,-40.0390625,-45.8984375,-129.8828125
1767829407195,1767829407.1642814,-37.59765625,-38.0859375,-46.38671875,-53.22265625,-173.33984375
1767829407195,1767829407.1681876,-38.0859375,-40.52734375,-37.59765625,-52.734375,-105.95703125
1767829407195,1767829407.1720939,-39.55078125,-45.41015625,-37.109375,-59.08203125,0.0
1767829407231,1767829407.178125,-41.50390625,-49.8046875,-43.45703125,-65.91796875,0.9765625
1767829407231,1767829407.1820312,-44.921875,-55.17578125,-37.59765625,-63.96484375,-144.04296875
1767829407231,1767829407.1859374,-50.78125,-56.640625,-32.2265625,-65.4296875,-206.0546875
1767829407231,1767829407.1898437,-50.78125,-49.8046875,-31.25,-68.359375,-175.78125
1767829407231,1767829407.19375,-45.41015625,-52.24609375,-34.1796875,-63.96484375,-236.81640625
1767829407231,1767829407.1976562,-39.55078125,-60.05859375,-43.45703125,-57.6171875,-120.60546875
1767829407231,1767829407.2015624,-43.9453125,-55.6640625,-41.50390625,-54.19921875,193.84765625
1767829407231,1767829407.2054687,-48.828125,-48.33984375,-38.0859375,-58.10546875,30.2734375
1767829407231,1767829407.209375,-48.828125,-53.7109375,-42.48046875,-60.546875,-107.91015625
1767829407231,1767829407.2132812,-49.8046875,-52.734375,-40.52734375,-56.15234375,0.0
1767829407231,1767829407.2171874,-48.828125,-43.9453125,-35.15625,-55.6640625,-60.546875
1767829407231,1767829407.2210937,-57.12890625,-46.38671875,-39.55078125,-61.03515625,-214.84375
1767829407292,1767829407.235125,-59.5703125,-50.78125,-43.45703125,-62.01171875,-188.4765625
1767829407292,1767829407.2390313,-55.6640625,-50.78125,-40.52734375,-62.98828125,-9.27734375
1767829407292,1767829407.2429376,-58.59375,-45.8984375,-42.48046875,-63.4765625,111.328125
1767829407292,1767829407.2468438,-58.10546875,-37.109375,-41.9921875,-62.98828125,72.75390625
1767829407292,1767829407.25075,-53.22265625,-37.109375,-38.57421875,-66.40625,-133.7890625
1767829407292,1767829407.2546563,-50.29296875,-46.875,-38.0859375,-65.4296875,118.65234375
1767829407292,1767829407.2585626,-51.7578125,-55.17578125,-41.9921875,-55.17578125,597.65625
1767829407292,1767829407.2624688,-46.38671875,-41.50390625,-43.9453125,-53.22265625,310.05859375
1767829407292,1767829407.266375,-34.66796875,-34.1796875,-40.0390625,-62.01171875,-55.6640625
1767829407292,1767829407.2702813,-33.69140625,-44.921875,-40.52734375,-68.84765625,-135.7421875
1767829407292,1767829407.2741876,-34.1796875,-44.43359375,-41.9921875,-69.82421875,-165.52734375
1767829407292,1767829407.2780938,-38.0859375,-42.96875,-36.62109375,-60.546875,-130.37109375
1767829407330,1767829407.279125,-46.38671875,-47.36328125,-37.109375,-58.10546875,-154.296875
1767829407330,1767829407.2830312,-43.45703125,-42.48046875,-47.36328125,-60.546875,-160.15625
1767829407330,1767829407.2869375,-38.0859375,-36.62109375,-48.828125,-51.26953125,-110.83984375
1767829407330,1767829407.2908437,-42.48046875,-42.48046875,-42.96875,-45.41015625,-126.953125
1767829407330,1767829407.29475,-47.36328125,-44.43359375,-38.57421875,-43.45703125,-148.92578125
1767829407330,1767829407.2986562,-46.875,-47.36328125,-35.15625,-36.62109375,-76.171875
1767829407330,1767829407.3025625,-43.45703125,-45.41015625,-36.1328125,-36.1328125,-29.78515625
1767829407330,1767829407.3064687,-40.52734375,-38.0859375,-39.0625,-41.015625,-80.56640625
1767829407330,1767829407.310375,-48.33984375,-45.41015625,-38.57421875,-39.55078125,-89.35546875
1767829407330,1767829407.3142812,-55.17578125,-54.6875,-43.45703125,-37.59765625,203.61328125
1767829407330,1767829407.3181875,-49.8046875,-49.31640625,-44.43359375,-41.9921875,92.28515625
1767829407330,1767829407.3220937,-45.8984375,-47.36328125,-40.0390625,-38.57421875,-143.5546875
1767829407391,1767829407.325125,-51.7578125,-44.43359375,-33.69140625,-35.15625,-55.17578125
1767829407391,1767829407.3290312,-49.31640625,-43.45703125,-32.71484375,-37.59765625,-42.48046875
1767829407391,1767829407.3329375,-51.26953125,-43.45703125,-34.66796875,-37.109375,-50.29296875
1767829407391,1767829407.3368437,-58.10546875,-41.9921875,-35.15625,-37.59765625,-120.60546875
1767829407391,1767829407.34075,-58.59375,-44.43359375,-31.25,-34.1796875,11.71875
1767829407391,1767829407.3446562,-60.05859375,-45.8984375,-30.76171875,-36.62109375,97.65625
1767829407391,1767829407.3485625,-54.6875,-38.0859375,-38.57421875,-49.31640625,-15.13671875
1767829407391,1767829407.3524687,-54.6875,-33.69140625,-37.59765625,-50.78125,-33.69140625
1767829407391,1767829407.356375,-55.17578125,-40.0390625,-36.62109375,-45.8984375,125.9765625
1767829407391,1767829407.3602812,-51.26953125,-39.55078125,-40.0390625,-51.26953125,354.4921875
1767829407391,1767829407.3641875,-54.19921875,-35.64453125,-42.48046875,-61.5234375,75.68359375
1767829407391,1767829407.3680937,-54.6875,-39.55078125,-49.31640625,-61.03515625,-133.7890625
1767829407434,1767829407.369125,-46.875,-39.55078125,-45.8984375,-58.59375,-145.01953125
1767829407434,1767829407.3730311,-45.8984375,-40.52734375,-45.41015625,-53.7109375,-147.4609375
1767829407434,1767829407.3769374,-47.36328125,-42.48046875,-50.78125,-48.33984375,-153.3203125
1767829407434,1767829407.3808436,-37.59765625,-40.52734375,-43.9453125,-41.9921875,-184.08203125
1767829407434,1767829407.38475,-32.71484375,-40.52734375,-39.0625,-39.0625,-118.1640625
1767829407434,1767829407.3886561,-32.2265625,-41.50390625,-33.69140625,-32.71484375,-88.37890625
1767829407434,1767829407.3925624,-31.73828125,-46.875,-33.69140625,-23.4375,-227.5390625
1767829407434,1767829407.3964686,-30.2734375,-42.96875,-41.50390625,-25.87890625,-202.63671875
1767829407434,1767829407.400375,-31.25,-36.1328125,-42.48046875,-24.90234375,-30.76171875
1767829407434,1767829407.4042811,-36.62109375,-39.0625,-40.52734375,-29.296875,-78.61328125
1767829407434,1767829407.4081874,-41.015625,-41.015625,-40.0390625,-41.9921875,-60.05859375
1767829407434,1767829407.4120936,-43.45703125,-47.36328125,-39.0625,-37.109375,28.3203125
1767829407465,1767829407.414125,-46.875,-55.17578125,-41.9921875,-36.62109375,254.8828125
1767829407465,1767829407.4180312,-49.31640625,-50.78125,-44.43359375,-44.43359375,152.34375
1767829407465,1767829407.4219375,-52.734375,-47.8515625,-53.7109375,-45.8984375,-205.078125
1767829407465,1767829407.4258437,-53.7109375,-48.828125,-61.03515625,-46.38671875,-139.6484375
1767829407465,1767829407.42975,-55.17578125,-44.921875,-56.640625,-36.1328125,-16.6015625
1767829407465,1767829407.4336562,-61.03515625,-46.38671875,-52.24609375,-42.48046875,-188.96484375
1767829407465,1767829407.4375625,-68.84765625,-49.31640625,-47.8515625,-55.17578125,-171.38671875
1767829407465,1767829407.4414687,-72.75390625,-50.78125,-44.921875,-46.38671875,102.5390625
1767829407465,1767829407.445375,-73.73046875,-52.734375,-46.38671875,-44.43359375,177.24609375
1767829407465,1767829407.4492812,-71.2890625,-51.7578125,-46.38671875,-52.24609375,-62.98828125
1767829407465,1767829407.4531875,-64.453125,-57.6171875,-48.828125,-54.6875,-171.38671875
1767829407465,1767829407.4570937,-59.5703125,-61.5234375,-50.29296875,-54.19921875,-30.2734375
1767829407512,1767829407.461125,-44.921875,-54.6875,-45.41015625,-59.08203125,103.515625
1767829407512,1767829407.4650311,-36.1328125,-51.26953125,-47.36328125,-60.05859375,-9.27734375
1767829407512,1767829407.4689374,-37.59765625,-54.6875,-49.31640625,-57.6171875,-43.45703125
1767829407512,1767829407.4728436,-40.52734375,-59.08203125,-47.36328125,-49.8046875,28.3203125
1767829407512,1767829407.47675,-40.52734375,-54.19921875,-47.8515625,-47.36328125,-23.4375
1767829407512,1767829407.4806561,-33.203125,-48.828125,-42.96875,-46.38671875,-53.7109375
1767829407512,1767829407.4845624,-29.78515625,-49.8046875,-38.57421875,-43.9453125,41.9921875
1767829407512,1767829407.4884686,-34.66796875,-50.29296875,-45.8984375,-44.43359375,213.37890625
1767829407512,1767829407.492375,-34.1796875,-43.45703125,-49.31640625,-45.8984375,54.19921875
1767829407512,1767829407.4962811,-34.66796875,-45.8984375,-44.43359375,-52.734375,-137.6953125
1767829407512,1767829407.5001874,-44.921875,-49.31640625,-46.38671875,-54.6875,-12.6953125
1767829407512,1767829407.5040936,-50.78125,-45.41015625,-45.8984375,-57.12890625,41.50390625
1767829407570,1767829407.505125,-50.78125,-46.875,-37.109375,-52.734375,-16.11328125
1767829407570,1767829407.5090313,-49.8046875,-54.19921875,-39.0625,-50.29296875,-75.68359375
1767829407570,1767829407.5129375,-53.7109375,-56.640625,-43.45703125,-55.6640625,125.48828125
1767829407570,1767829407.5168438,-55.6640625,-52.734375,-33.69140625,-52.734375,250.0
1767829407570,1767829407.52075,-53.7109375,-47.8515625,-37.109375,-51.7578125,35.15625
1767829407570,1767829407.5246563,-51.26953125,-47.8515625,-44.43359375,-53.22265625,-113.28125
1767829407570,1767829407.5285625,-50.78125,-53.22265625,-41.015625,-44.921875,206.54296875
1767829407570,1767829407.5324688,-52.734375,-52.734375,-39.0625,-35.64453125,440.91796875
1767829407570,1767829407.536375,-55.17578125,-43.9453125,-38.0859375,-46.875,-130.37109375
1767829407570,1767829407.5402813,-54.6875,-47.36328125,-36.62109375,-55.6640625,-325.1953125
1767829407570,1767829407.5441875,-57.6171875,-52.734375,-37.109375,-57.6171875,-207.51953125
1767829407570,1767829407.5480938,-58.10546875,-52.24609375,-37.59765625,-50.78125,-275.390625
1767829407618,1767829407.551125,-62.98828125,-56.640625,-40.0390625,-50.29296875,-257.8125
1767829407618,1767829407.5550313,-68.84765625,-59.08203125,-44.921875,-62.98828125,-133.30078125
1767829407618,1767829407.5589375,-62.01171875,-50.29296875,-50.29296875,-75.1953125,-91.796875
1767829407618,1767829407.5628438,-64.453125,-45.41015625,-50.29296875,-82.03125,-103.515625
1767829407618,1767829407.56675,-69.3359375,-53.7109375,-45.8984375,-78.125,-183.10546875
1767829407618,1767829407.5706563,-64.453125,-55.17578125,-44.921875,-72.75390625,-171.875
1767829407618,1767829407.5745625,-63.4765625,-55.17578125,-41.9921875,-69.3359375,-13.671875
1767829407618,1767829407.5784688,-63.4765625,-50.29296875,-37.59765625,-71.2890625,-127.44140625
1767829407618,1767829407.582375,-69.3359375,-39.55078125,-39.0625,-76.171875,-239.2578125
1767829407618,1767829407.5862813,-77.63671875,-42.96875,-34.1796875,-82.51953125,-137.6953125
1767829407618,1767829407.5901875,-70.80078125,-44.921875,-32.2265625,-76.66015625,63.4765625
1767829407618,1767829407.5940938,-74.21875,-38.57421875,-40.0390625,-84.47265625,-73.2421875
1767829407659,1767829407.595125,-85.44921875,-38.57421875,-35.64453125,-94.23828125,-257.8125
1767829407659,1767829407.5990312,-91.796875,-43.9453125,-26.3671875,-91.30859375,-2.44140625
1767829407659,1767829407.6029375,-92.28515625,-42.96875,-25.390625,-93.75,120.60546875
1767829407659,1767829407.6068437,-86.9140625,-37.59765625,-23.4375,-93.75,-19.04296875
1767829407659,1767829407.61075,-87.40234375,-44.921875,-28.3203125,-99.609375,-88.37890625
1767829407659,1767829407.6146562,-97.16796875,-49.31640625,-33.203125,-101.5625,164.55078125
1767829407659,1767829407.6185625,-95.703125,-45.8984375,-30.76171875,-95.21484375,336.42578125
1767829407659,1767829407.6224687,-83.49609375,-44.921875,-26.85546875,-98.14453125,23.4375
1767829407659,1767829407.626375,-77.63671875,-46.875,-26.85546875,-89.84375,-200.68359375
1767829407659,1767829407.6302812,-80.078125,-49.31640625,-32.71484375,-76.66015625,-1.46484375
1767829407659,1767829407.6341875,-80.078125,-47.8515625,-27.34375,-73.73046875,144.53125
1767829407659,1767829407.6380937,-73.73046875,-49.31640625,-27.83203125,-75.1953125,-143.5546875
1767829407706,1767829407.655125,-70.80078125,-53.22265625,-34.66796875,-67.87109375,-224.12109375
1767829407706,1767829407.6590312,-77.63671875,-50.78125,-33.69140625,-67.3828125,-187.01171875
1767829407706,1767829407.6629374,-80.56640625,-49.8046875,-34.1796875,-64.94140625,-142.578125
1767829407706,1767829407.6668437,-71.2890625,-47.8515625,-28.80859375,-57.12890625,-129.39453125
1767829407706,1767829407.67075,-65.4296875,-48.828125,-33.69140625,-59.5703125,-67.87109375
1767829407706,1767829407.6746562,-56.15234375,-41.50390625,-44.43359375,-60.546875,162.109375
1767829407706,1767829407.6785624,-57.12890625,-40.52734375,-41.9921875,-55.6640625,85.9375
1767829407706,1767829407.6824687,-54.6875,-39.55078125,-38.0859375,-51.26953125,-118.1640625
1767829407706,1767829407.686375,-46.38671875,-36.62109375,-35.15625,-48.33984375,36.62109375
1767829407706,1767829407.6902812,-47.8515625,-42.48046875,-44.43359375,-47.36328125,210.44921875
1767829407706,1767829407.6941874,-45.41015625,-41.9921875,-50.29296875,-51.26953125,100.09765625
1767829407706,1767829407.6980937,-39.55078125,-39.0625,-45.41015625,-52.734375,-12.20703125
1767829407752,1767829407.700125,-34.1796875,-39.55078125,-47.8515625,-39.55078125,24.90234375
1767829407752,1767829407.7040312,-38.57421875,-39.55078125,-47.8515625,-36.1328125,4.8828125
1767829407752,1767829407.7079375,-46.38671875,-40.0390625,-44.43359375,-55.17578125,-165.52734375
1767829407752,1767829407.7118437,-47.36328125,-36.1328125,-40.0390625,-59.5703125,-184.5703125
1767829407752,1767829407.71575,-48.33984375,-41.50390625,-46.875,-46.875,39.0625
1767829407752,1767829407.7196562,-49.31640625,-48.33984375,-54.19921875,-46.875,182.12890625
1767829407752,1767829407.7235625,-50.78125,-41.9921875,-46.875,-48.33984375,27.83203125
1767829407752,1767829407.7274687,-53.22265625,-33.69140625,-41.9921875,-44.43359375,-171.38671875
1767829407752,1767829407.731375,-55.6640625,-38.57421875,-46.38671875,-47.36328125,-49.31640625
1767829407752,1767829407.7352812,-58.59375,-40.52734375,-47.36328125,-52.24609375,74.21875
1767829407752,1767829407.7391875,-57.6171875,-30.2734375,-45.8984375,-54.19921875,-204.1015625
1767829407752,1767829407.7430937,-55.6640625,-35.64453125,-49.31640625,-58.59375,-205.078125
1767829407812,1767829407.760125,-50.78125,-40.0390625,-47.8515625,-59.5703125,-213.8671875
1767829407812,1767829407.7640312,-47.8515625,-40.0390625,-48.33984375,-63.4765625,-194.82421875
1767829407812,1767829407.7679374,-46.38671875,-41.015625,-56.15234375,-59.08203125,-127.9296875
1767829407812,1767829407.7718437,-43.9453125,-38.57421875,-60.05859375,-55.6640625,-187.01171875
1767829407812,1767829407.77575,-42.96875,-40.0390625,-56.15234375,-62.98828125,-168.45703125
1767829407813,1767829407.7796562,-37.59765625,-37.109375,-49.8046875,-58.10546875,-165.52734375
1767829407813,1767829407.7835624,-29.296875,-34.66796875,-45.41015625,-47.36328125,-148.92578125
1767829407813,1767829407.7874687,-41.015625,-43.45703125,-45.41015625,-41.9921875,-77.1484375
1767829407813,1767829407.791375,-56.640625,-49.31640625,-46.875,-28.3203125,197.265625
1767829407813,1767829407.7952812,-66.40625,-43.45703125,-46.38671875,-25.87890625,165.52734375
1767829407813,1767829407.7991874,-78.61328125,-46.38671875,-48.33984375,-36.1328125,-154.78515625
1767829407813,1767829407.8030937,-83.0078125,-52.734375,-52.734375,-41.9921875,-147.94921875
1767829407841,1767829407.790125,-76.171875,-49.31640625,-53.7109375,-44.43359375,-97.65625
1767829407841,1767829407.7940311,-70.3125,-40.0390625,-56.640625,-49.8046875,-46.38671875
1767829407841,1767829407.7979374,-68.359375,-39.0625,-58.10546875,-56.640625,-125.0
1767829407841,1767829407.8018436,-66.89453125,-51.26953125,-58.10546875,-52.24609375,-10.7421875
1767829407841,1767829407.80575,-73.2421875,-52.734375,-56.15234375,-52.24609375,170.41015625
1767829407841,1767829407.8096561,-71.77734375,-48.33984375,-54.19921875,-67.3828125,-101.07421875
1767829407841,1767829407.8135624,-59.08203125,-47.8515625,-56.640625,-64.94140625,-152.83203125
1767829407841,1767829407.8174686,-51.26953125,-46.38671875,-56.640625,-56.640625,110.3515625
1767829407841,1767829407.821375,-53.7109375,-45.8984375,-51.26953125,-57.6171875,143.06640625
1767829407841,1767829407.8252811,-53.22265625,-41.015625,-48.33984375,-53.7109375,-99.609375
1767829407841,1767829407.8291874,-40.0390625,-39.0625,-49.8046875,-43.9453125,-202.1484375
1767829407841,1767829407.8330936,-32.71484375,-45.41015625,-48.33984375,-33.69140625,102.5390625
1767829407885,1767829407.834125,-33.69140625,-43.9453125,-44.43359375,-35.15625,224.609375
1767829407886,1767829407.8380313,-40.52734375,-39.55078125,-42.48046875,-48.33984375,-90.33203125
1767829407886,1767829407.8419375,-32.2265625,-43.9453125,-43.45703125,-44.43359375,-105.46875
1767829407886,1767829407.8458438,-25.390625,-43.9453125,-45.8984375,-44.921875,-31.25
1767829407886,1767829407.84975,-37.109375,-41.9921875,-47.36328125,-42.48046875,-5.37109375
1767829407886,1767829407.8536563,-47.8515625,-46.38671875,-49.31640625,-44.43359375,12.20703125
1767829407886,1767829407.8575625,-43.9453125,-49.8046875,-48.828125,-54.6875,0.0
1767829407886,1767829407.8614688,-43.9453125,-56.15234375,-51.7578125,-45.41015625,366.2109375
1767829407886,1767829407.865375,-52.734375,-52.24609375,-56.640625,-48.828125,331.0546875
1767829407886,1767829407.8692813,-59.08203125,-45.8984375,-53.7109375,-61.03515625,-119.62890625
1767829407886,1767829407.8731875,-54.6875,-49.31640625,-54.19921875,-67.87109375,-79.58984375
1767829407886,1767829407.8770938,-48.33984375,-45.8984375,-49.8046875,-76.171875,-56.15234375
1767829407943,1767829407.880125,-52.24609375,-44.921875,-52.24609375,-77.1484375,-102.05078125
1767829407943,1767829407.8840313,-61.03515625,-49.8046875,-63.4765625,-78.61328125,-83.984375
1767829407943,1767829407.8879375,-59.5703125,-48.828125,-60.546875,-77.63671875,71.77734375
1767829407943,1767829407.8918438,-44.43359375,-42.96875,-52.734375,-71.2890625,141.6015625
1767829407943,1767829407.89575,-41.9921875,-37.109375,-47.36328125,-76.171875,-39.0625
